节点DUV_HRD08281_00011.txt的数据
Date: Sun Jan 19 20:04:10 CST 2020
User: lab329
Spectrometer: HR+D0828
触发模式: 0
积分时间 (秒): 3.000000E0
Scans to average: 10
启用暗噪声校正: true
启用非线性校正: false
滑动平均宽度: 0
X轴模式: Wavelengths
Number of Pixels in Spectrum: 2048
>>>>>Begin Spectral Data<<<<<
186.281	-64.62
186.758	-64.62
187.234	-64.62
187.71	-65.92
188.187	-67.82
188.663	2.98
189.139	1.08
189.615	2.98
190.091	-4.22
190.567	10.88
191.043	2.18
191.519	44.28
191.995	3.58
192.471	48.98
192.947	53.38
193.423	3.18
193.899	-10.02
194.375	39.18
194.851	39.18
195.327	4.28
195.803	-17.92
196.278	622.88
196.754	97.28
197.23	39.18
197.706	14.58
198.181	133.98
198.657	27.68
199.133	3.88
199.608	25.88
200.084	9.38
200.559	-5.42
201.035	74.78
201.51	-0.32
201.986	-12.82
202.461	-20.52
202.937	0.88
203.412	68.98
203.887	8.98
204.363	-13.92
204.838	-4.82
205.313	6.28
205.789	-14.22
206.264	8.08
206.739	-12.32
207.214	23.78
207.689	14.68
208.165	7.58
208.64	35.48
209.115	-13.82
209.59	-20.92
210.065	28.68
210.54	-7.82
211.015	-17.92
211.49	4.28
211.965	19.58
212.44	8.68
212.914	-22.52
213.389	-15.72
213.864	-37.12
214.339	-0.92
214.814	-21.22
215.288	-9.72
215.763	24.18
216.238	-21.72
216.712	-14.22
217.187	-14.52
217.662	23.78
218.136	1.88
218.611	-17.92
219.085	43.18
219.56	-21.22
220.034	-13.12
220.509	5.68
220.983	9.48
221.458	-10.82
221.932	-11.42
222.406	-11.62
222.881	-31.32
223.355	-27.12
223.829	-27.62
224.303	2.28
224.778	-6.72
225.252	-25.82
225.726	-18.62
226.2	-2.92
226.674	66.38
227.148	-10.12
227.622	-27.82
228.096	-11.62
228.57	-11.02
229.044	-16.82
229.518	2.28
229.992	318.77
230.466	2756.28
230.94	212.48
231.414	29.78
231.888	-16.02
232.361	-27.42
232.835	-21.92
233.309	-10.62
233.783	-10.82
234.256	-29.42
234.73	-22.02
235.204	-7.22
235.677	19.78
236.151	-18.82
236.624	-12.52
237.098	-15.12
237.571	-2.62
238.045	-1.12
238.518	-26.72
238.992	-20.32
239.465	-2.22
239.939	-1.22
240.412	-4.52
240.885	11.18
241.359	6.88
241.832	-9.02
242.305	-8.92
242.778	-13.42
243.251	12.28
243.725	-27.52
244.198	-10.22
244.671	-20.92
245.144	3.58
245.617	25.88
246.09	-20.12
246.563	13.48
247.036	-21.12
247.509	-10.62
247.982	25.08
248.455	-30.62
248.928	-20.72
249.4	-20.52
249.873	-18.02
250.346	43.28
250.819	-25.12
251.292	-18.62
251.764	-22.02
252.237	-0.82
252.71	-25.02
253.182	-25.92
253.655	54.18
254.127	-16.92
254.6	3.28
255.073	1631.88
255.545	125.08
256.018	-5.52
256.49	15.48
256.962	-18.02
257.435	31.58
257.907	-2.82
258.379	5.48
258.852	-4.62
259.324	-13.02
259.796	-5.42
260.269	-5.92
260.741	-17.72
261.213	-11.12
261.685	-20.22
262.157	-18.32
262.629	-17.12
263.101	-21.12
263.574	-10.32
264.046	-23.52
264.518	-29.12
264.99	-3.12
265.461	-14.02
265.933	-6.92
266.405	-11.82
266.877	-12.12
267.349	-23.02
267.821	18.08
268.293	5.68
268.764	3.88
269.236	-15.12
269.708	28.38
270.18	-25.62
270.651	5.88
271.123	42.78
271.594	-5.52
272.066	-18.22
272.538	186.88
273.009	88.48
273.481	9.28
273.952	7.08
274.423	-9.02
274.895	23.68
275.366	82.08
275.838	39.38
276.309	-4.52
276.78	-10.92
277.252	-3.32
277.723	45.88
278.194	21.38
278.665	15.48
279.136	-0.92
279.608	-0.12
280.079	5.78
280.55	1.98
281.021	13.38
281.492	15.78
281.963	19.18
282.434	45.78
282.905	58.28
283.376	63.78
283.847	62.98
284.318	113.18
284.789	116.48
285.259	133.98
285.73	122.38
286.201	118.38
286.672	157.58
287.143	214.48
287.613	236.58
288.084	289.77
288.555	373.58
289.025	502.68
289.496	696.38
289.966	1072.58
290.437	2133.08
290.907	4688.48
291.378	7885.07
291.848	10660.88
292.319	11663.47
292.789	9848.27
293.26	6629.68
293.73	3961.48
294.2	2374.98
294.671	1379.08
295.141	910.77
295.611	578.68
296.081	399.18
296.552	314.38
297.022	199.18
297.492	167.98
297.962	132.68
298.432	111.48
298.902	63.28
299.372	68.28
299.842	103.38
300.312	28.08
300.782	30.48
301.252	16.08
301.722	14.38
302.192	47.58
302.662	8.18
303.132	6.08
303.602	2.38
304.071	47.78
304.541	-4.72
305.011	16.88
305.481	-14.92
305.95	-4.52
306.42	-18.22
306.889	-0.42
307.359	2.78
307.829	-19.92
308.298	-21.82
308.768	9.38
309.237	-21.62
309.707	-6.22
310.176	5.18
310.645	-24.72
311.115	-7.82
311.584	-8.12
312.054	-26.52
312.523	-26.62
312.992	-17.02
313.461	-23.02
313.931	-20.72
314.4	19.78
314.869	-21.42
315.338	-14.22
315.807	-17.82
316.276	-38.02
316.745	-36.02
317.214	11.48
317.683	-11.42
318.152	-4.72
318.621	-21.52
319.09	-24.62
319.559	-1.12
320.028	-23.62
320.497	-27.32
320.966	-32.42
321.435	-20.52
321.903	-17.32
322.372	-24.92
322.841	18.98
323.31	-2.52
323.778	-20.42
324.247	-35.42
324.715	-20.32
325.184	51.58
325.653	7.48
326.121	-27.32
326.59	-27.32
327.058	-13.12
327.527	14.98
327.995	-6.72
328.463	-26.82
328.932	40.88
329.4	37.88
329.868	10.08
330.337	0.38
330.805	68.88
331.273	-12.72
331.741	-28.12
332.21	-15.22
332.678	-8.52
333.146	-10.12
333.614	-24.12
334.082	1.48
334.55	-21.52
335.018	-20.92
335.486	-31.82
335.954	-34.32
336.422	17.78
336.89	-25.82
337.358	-18.72
337.826	-28.42
338.294	-5.82
338.762	-24.12
339.229	37.68
339.697	0.78
340.165	-6.92
340.633	-19.62
341.1	-16.32
341.568	25.28
342.035	9.38
342.503	14.58
342.971	-20.82
343.438	28.18
343.906	-27.82
344.373	-6.12
344.841	10.98
345.308	-5.92
345.776	-4.22
346.243	-31.12
346.71	-18.32
347.178	-23.62
347.645	46.18
348.112	24.88
348.58	-13.22
349.047	-32.62
349.514	4.38
349.981	-29.52
350.448	28.08
350.915	-24.82
351.383	-31.82
351.85	-27.82
352.317	-2.62
352.784	-19.22
353.251	-11.32
353.718	-27.12
354.185	-24.22
354.651	15.38
355.118	-35.02
355.585	23.88
356.052	34.98
356.519	-14.22
356.986	-35.12
357.452	-2.32
357.919	8.38
358.386	-0.12
358.853	-8.12
359.319	-26.22
359.786	-14.12
360.252	15.88
360.719	21.88
361.185	-4.12
361.652	-20.42
362.118	-30.02
362.585	-15.92
363.051	6.58
363.518	-31.12
363.984	-33.12
364.451	-0.32
364.917	-29.02
365.383	-23.42
365.849	21.18
366.316	-5.62
366.782	-14.42
367.248	-40.02
367.714	-12.82
368.18	-26.52
368.647	-10.12
369.113	-27.82
369.579	-27.22
370.045	-20.52
370.511	27.88
370.977	-12.52
371.443	-24.62
371.909	-32.22
372.374	-7.42
372.84	-40.82
373.306	-42.02
373.772	12.98
374.238	-31.52
374.704	-37.02
375.169	-32.22
375.635	61.08
376.101	41.98
376.566	-12.12
377.032	18.28
377.498	-16.82
377.963	-18.82
378.429	13.88
378.894	-14.72
379.36	-0.92
379.825	-28.32
380.291	-40.02
380.756	-8.82
381.222	8.38
381.687	-28.72
382.152	-25.92
382.618	12.78
383.083	14.78
383.548	47.88
384.013	-24.22
384.479	-26.22
384.944	-24.72
385.409	-22.62
385.874	-32.12
386.339	24.58
386.804	29.38
387.269	23.38
387.734	-20.92
388.199	-26.02
388.664	-4.22
389.129	-16.32
389.594	-38.82
390.059	-28.42
390.524	-0.92
390.989	-3.32
391.453	3.68
391.918	-31.32
392.383	-25.72
392.848	4.78
393.312	42.68
393.777	-3.92
394.242	-7.52
394.706	20.58
395.171	-2.12
395.635	-9.02
396.1	-1.32
396.565	1.48
397.029	-2.02
397.493	-23.52
397.958	3.78
398.422	-34.42
398.887	10.08
399.351	-5.42
399.815	-28.12
400.28	-29.22
400.744	-19.62
401.208	3.28
401.672	-30.02
402.137	-21.02
402.601	-26.32
403.065	-17.72
403.529	-27.72
403.993	-28.92
404.457	-28.62
404.921	-1.82
405.385	19.98
405.849	-23.02
406.313	14.58
406.777	-11.22
407.241	9.48
407.705	38.28
408.169	-3.32
408.632	-20.42
409.096	-4.62
409.56	-22.22
410.024	-1.62
410.487	-11.82
410.951	6.78
411.415	-22.72
411.878	-36.12
412.342	6.88
412.806	-25.02
413.269	5.58
413.733	-23.42
414.196	-23.52
414.66	7.38
415.123	-18.62
415.587	1.88
416.05	-25.22
416.513	6.18
416.977	-15.82
417.44	-12.92
417.903	-28.82
418.366	-33.42
418.83	-9.92
419.293	33.78
419.756	10.08
420.219	-28.52
420.682	-10.12
421.145	-10.52
421.608	-29.02
422.072	-7.32
422.535	-35.12
422.998	-10.82
423.46	-27.92
423.923	-41.42
424.386	-33.82
424.849	13.88
425.312	33.78
425.775	-23.12
426.238	35.68
426.7	12.78
427.163	-29.32
427.626	-25.32
428.089	1.28
428.551	-27.62
429.014	-25.02
429.477	4.28
429.939	-28.02
430.402	-11.22
430.864	-22.72
431.327	-13.82
431.789	-17.92
432.252	-26.42
432.714	-38.12
433.176	-37.02
433.639	-30.22
434.101	-25.52
434.563	-2.92
435.026	-36.72
435.488	-31.12
435.95	-20.52
436.412	-6.82
436.875	-29.72
437.337	-12.92
437.799	14.48
438.261	20.18
438.723	-12.62
439.185	-28.82
439.647	-28.82
440.109	-8.42
440.571	-20.12
441.033	-5.92
441.495	-21.52
441.957	-31.82
442.419	-11.52
442.881	-20.52
443.342	-39.92
443.804	18.88
444.266	-6.92
444.728	-39.82
445.189	4.88
445.651	-29.22
446.113	-15.12
446.574	-16.12
447.036	-35.92
447.497	-7.72
447.959	-9.12
448.421	-32.42
448.882	-3.32
449.343	-32.32
449.805	-26.82
450.266	-23.02
450.728	-26.32
451.189	-22.92
451.65	-33.42
452.112	29.88
452.573	-19.92
453.034	-27.52
453.495	-21.32
453.957	17.58
454.418	-39.02
454.879	-38.82
455.34	-21.52
455.801	-14.32
456.262	-30.92
456.723	-40.02
457.184	-28.52
457.645	-23.82
458.106	-21.02
458.567	-22.42
459.028	-34.32
459.489	-2.52
459.95	-8.92
460.41	-16.22
460.871	-33.82
461.332	-44.32
461.793	-34.12
462.253	-26.12
462.714	-14.02
463.175	-27.52
463.635	-16.92
464.096	-10.42
464.556	-2.92
465.017	-30.02
465.478	-39.32
465.938	-14.92
466.398	-23.42
466.859	-23.22
467.319	33.48
467.78	-29.12
468.24	-32.32
468.7	-21.12
469.161	-34.92
469.621	-18.62
470.081	-28.92
470.541	-42.72
471.002	-38.42
471.462	-17.32
471.922	2.58
472.382	-25.62
472.842	-38.02
473.302	-24.92
473.762	-43.52
474.222	-17.22
474.682	-19.92
475.142	-33.22
475.602	-23.52
476.062	-35.32
476.522	-26.82
476.982	-0.12
477.442	-26.72
477.901	-31.42
478.361	46.08
478.821	13.18
479.281	-19.42
479.74	-21.62
480.2	-30.12
480.659	-17.42
481.119	5.68
481.579	-35.32
482.038	-26.62
482.498	27.78
482.957	5.78
483.417	26.58
483.876	-24.22
484.336	-19.52
484.795	-33.42
485.254	-32.72
485.714	-11.92
486.173	0.68
486.632	0.68
487.091	-4.12
487.551	-4.22
488.01	-27.02
488.469	-36.02
488.928	-30.42
489.387	-14.92
489.846	-9.12
490.305	-28.22
490.764	-29.92
491.223	8.28
491.682	-28.82
492.141	10.28
492.6	-24.32
493.059	-36.32
493.518	-32.72
493.977	-24.12
494.436	15.58
494.895	-30.52
495.353	-28.32
495.812	-21.82
496.271	-29.92
496.729	-37.52
497.188	-40.62
497.647	-37.32
498.105	-20.92
498.564	-33.92
499.022	-34.92
499.481	-31.12
499.939	-29.12
500.398	-17.42
500.856	-16.52
501.315	-18.82
501.773	-29.42
502.232	-27.42
502.69	-26.32
503.148	-2.42
503.606	-22.92
504.065	12.48
504.523	-20.32
504.981	-32.72
505.439	-23.32
505.897	-6.12
506.356	-26.02
506.814	36.18
507.272	-10.62
507.73	-16.02
508.188	-11.82
508.646	-29.22
509.104	12.58
509.562	-21.92
510.02	-15.02
510.477	105.88
510.935	-20.92
511.393	-34.72
511.851	-28.92
512.309	-33.82
512.766	-47.72
513.224	-39.52
513.682	-37.52
514.139	-2.72
514.597	-29.72
515.055	-44.62
515.512	-15.62
515.97	-19.92
516.427	5.18
516.885	-25.52
517.342	-27.72
517.8	-22.72
518.257	-18.92
518.714	71.38
519.172	-18.72
519.629	-19.42
520.086	-23.72
520.544	-40.22
521.001	-18.72
521.458	-21.22
521.915	-23.22
522.373	-29.22
522.83	-29.72
523.287	-2.12
523.744	-20.92
524.201	-15.72
524.658	-4.62
525.115	-33.52
525.572	-30.42
526.029	-36.32
526.486	-17.52
526.943	0.18
527.4	-7.32
527.857	-9.72
528.313	-35.62
528.77	-31.82
529.227	-8.22
529.684	-27.52
530.14	-26.72
530.597	-34.82
531.054	-38.52
531.51	-36.42
531.967	-21.32
532.423	-41.42
532.88	-38.62
533.337	-37.62
533.793	-28.32
534.25	-29.52
534.706	-47.22
535.162	-35.62
535.619	-30.22
536.075	-34.02
536.531	-35.62
536.988	-9.42
537.444	-10.42
537.9	-22.92
538.356	-34.62
538.813	-19.12
539.269	51.58
539.725	-5.82
540.181	0.28
540.637	-20.02
541.093	-24.42
541.549	-21.82
542.005	3.68
542.461	-29.32
542.917	47.68
543.373	-10.22
543.829	-23.82
544.285	-16.72
544.741	-35.22
545.197	43.88
545.652	-36.92
546.108	-1.62
546.564	-20.02
547.02	-14.82
547.475	-34.72
547.931	-27.92
548.387	-34.72
548.842	-20.92
549.298	18.08
549.753	-9.82
550.209	39.78
550.664	-30.42
551.12	-12.32
551.575	-18.42
552.031	15.58
552.486	-32.82
552.941	-26.62
553.397	607.88
553.852	77.78
554.307	8.88
554.762	-9.12
555.218	-30.62
555.673	8.68
556.128	-12.82
556.583	-24.22
557.038	-11.82
557.493	-39.52
557.948	-33.92
558.403	-14.62
558.858	-41.32
559.313	-42.82
559.768	6.58
560.223	-38.42
560.678	35.28
561.133	-33.22
561.588	-18.52
562.043	-34.02
562.497	-31.92
562.952	-31.42
563.407	-30.32
563.862	32.58
564.316	-20.32
564.771	-31.42
565.226	-16.22
565.68	-41.42
566.135	-40.62
566.589	-42.52
567.044	-31.92
567.498	-22.32
567.953	-15.32
568.407	-25.92
568.862	-19.42
569.316	-0.42
569.77	0.58
570.225	-44.92
570.679	-10.42
571.133	-24.72
571.587	-30.22
572.042	1.18
572.496	15.38
572.95	-32.62
573.404	-16.12
573.858	-29.52
574.312	-44.72
574.766	-32.82
575.22	-30.72
575.674	-25.52
576.128	-30.42
576.582	-34.82
577.036	-25.62
577.49	-47.62
577.944	-25.62
578.398	-0.12
578.852	-23.82
579.305	-13.22
579.759	-13.92
580.213	-34.42
580.666	-19.42
581.12	-37.82
581.574	-29.52
582.027	-25.52
582.481	-12.02
582.935	-37.82
583.388	12.68
583.842	-21.42
584.295	-41.92
584.748	-17.22
585.202	-2.72
585.655	3.88
586.109	-27.52
586.562	65.18
587.015	15.78
587.469	-28.82
587.922	-35.12
588.375	-32.92
588.828	-16.02
589.281	-10.92
589.735	-35.02
590.188	-30.32
590.641	-31.62
591.094	-20.22
591.547	-32.92
592	-18.62
592.453	-27.72
592.906	-30.62
593.359	-37.12
593.812	-45.12
594.265	35.88
594.717	13.78
595.17	3.88
595.623	-23.52
596.076	-48.12
596.529	-13.62
596.981	-29.12
597.434	-8.02
597.887	-29.52
598.339	-46.32
598.792	-35.72
599.245	-23.22
599.697	-39.52
600.15	-11.22
600.602	12.08
601.055	-24.62
601.507	-33.02
601.959	-23.22
602.412	-24.32
602.864	-26.22
603.316	-30.82
603.769	-28.32
604.221	41.78
604.673	-9.82
605.126	-20.62
605.578	-18.32
606.03	-20.32
606.482	-41.02
606.934	-32.02
607.386	-36.72
607.838	-34.02
608.29	-27.92
608.742	2.58
609.194	-18.42
609.646	-15.02
610.098	-24.02
610.55	-30.72
611.002	-28.32
611.454	-33.22
611.906	-46.82
612.357	-32.52
612.809	2.68
613.261	-39.02
613.713	-9.82
614.164	-32.72
614.616	-9.52
615.068	20.88
615.519	-31.22
615.971	-30.82
616.422	-2.12
616.874	-18.42
617.325	-32.12
617.777	-30.72
618.228	-34.52
618.68	16.38
619.131	-23.42
619.582	-39.42
620.034	-2.72
620.485	-19.02
620.936	-46.02
621.387	-36.62
621.839	-40.12
622.29	15.78
622.741	13.88
623.192	0.88
623.643	12.88
624.094	-28.82
624.545	-26.12
624.996	-42.92
625.447	2.98
625.898	19.38
626.349	-29.82
626.8	-37.02
627.251	-24.42
627.702	-39.32
628.153	-6.32
628.604	-39.82
629.054	-40.42
629.505	5.88
629.956	-37.72
630.406	10.58
630.857	18.88
631.308	-24.52
631.758	-9.02
632.209	-2.32
632.66	-30.22
633.11	-4.62
633.561	-41.42
634.011	34.98
634.461	-34.22
634.912	-11.22
635.362	4.38
635.813	-30.32
636.263	-39.52
636.713	4.28
637.164	-42.42
637.614	-33.42
638.064	-47.92
638.514	-49.42
638.964	-12.02
639.415	7.98
639.865	-25.82
640.315	-10.02
640.765	-28.52
641.215	-13.22
641.665	-12.12
642.115	-21.32
642.565	65.98
643.015	-15.52
643.465	-15.32
643.915	-32.72
644.364	-16.32
644.814	-24.92
645.264	-11.12
645.714	-3.02
646.163	-8.62
646.613	-25.32
647.063	5.78
647.513	3.38
647.962	-21.42
648.412	-22.12
648.861	-11.32
649.311	-38.02
649.76	3.48
650.21	-40.72
650.659	8.88
651.109	0.58
651.558	-22.02
652.008	-14.82
652.457	-20.82
652.906	-22.52
653.356	11.38
653.805	-17.02
654.254	-7.92
654.703	-26.62
655.152	-17.62
655.602	-37.32
656.051	-25.82
656.5	-36.02
656.949	-38.52
657.398	-5.12
657.847	-43.82
658.296	-34.32
658.745	-30.72
659.194	-15.82
659.643	-8.32
660.092	-20.82
660.541	-36.22
660.989	-20.82
661.438	-10.32
661.887	9.38
662.336	-18.72
662.784	-40.12
663.233	10.48
663.682	17.38
664.13	-19.82
664.579	-34.12
665.028	-31.92
665.476	-0.72
665.925	-23.52
666.373	-20.42
666.822	-27.02
667.27	-26.82
667.719	-39.12
668.167	-13.02
668.615	-24.02
669.064	-32.42
669.512	-36.32
669.96	2.08
670.408	-18.02
670.857	-14.72
671.305	4.28
671.753	-32.42
672.201	-19.82
672.649	-11.02
673.097	9.28
673.545	-28.62
673.993	15.88
674.441	-33.12
674.889	-39.72
675.337	-29.62
675.785	43.68
676.233	-19.72
676.681	-6.22
677.129	-31.02
677.577	-21.72
678.025	-39.32
678.472	-29.02
678.92	-26.32
679.368	-5.62
679.815	-41.42
680.263	-40.02
680.711	-32.02
681.158	-33.32
681.606	11.98
682.053	-25.82
682.501	-18.02
682.948	5.98
683.396	9.58
683.843	40.18
684.291	-15.42
684.738	52.28
685.185	19.98
685.633	110.98
686.08	21.18
686.527	-25.72
686.974	-36.42
687.422	-20.42
687.869	5.78
688.316	-21.72
688.763	-40.32
689.21	-33.22
689.657	-14.32
690.104	-23.72
690.551	21.68
690.998	19.08
691.445	-19.82
691.892	25.38
692.339	-22.62
692.786	4.28
693.233	-19.52
693.68	14.78
694.127	29.98
694.573	-17.32
695.02	-35.12
695.467	-31.32
695.913	9.98
696.36	26.98
696.807	60.38
697.253	18.58
697.7	-12.52
698.146	-25.72
698.593	-26.42
699.039	27.78
699.486	20.68
699.932	-27.32
700.379	5.78
700.825	47.48
701.272	-15.82
701.718	48.88
702.164	50.28
702.61	19.88
703.057	-12.22
703.503	9.08
703.949	-18.92
704.395	3.48
704.841	-12.22
705.287	15.38
705.734	-1.82
706.18	-25.42
706.626	28.58
707.072	14.08
707.518	8.48
707.964	-10.42
708.409	-35.12
708.855	-34.82
709.301	0.58
709.747	13.78
710.193	-14.22
710.639	1.38
711.084	44.48
711.53	26.98
711.976	-26.12
712.421	23.18
712.867	-31.72
713.313	-1.12
713.758	-34.52
714.204	-17.72
714.649	6.88
715.095	37.38
715.54	-1.42
715.986	-38.22
716.431	-40.92
716.877	-43.12
717.322	-25.92
717.767	58.78
718.213	-28.92
718.658	-16.92
719.103	6.48
719.548	21.28
719.994	-21.22
720.439	-25.52
720.884	-22.42
721.329	-25.82
721.774	4.78
722.219	-28.02
722.664	9.18
723.109	-25.92
723.554	-25.22
723.999	-14.92
724.444	55.58
724.889	-7.72
725.334	2.28
725.779	-31.72
726.223	-26.92
726.668	-16.82
727.113	-33.12
727.558	-17.52
728.002	-24.82
728.447	-17.42
728.892	27.68
729.336	-19.52
729.781	-3.22
730.225	-22.02
730.67	-23.02
731.114	-17.32
731.559	-2.52
732.003	51.78
732.448	-12.02
732.892	-4.42
733.337	-25.42
733.781	-29.92
734.225	10.18
734.67	66.28
735.114	21.48
735.558	-19.42
736.002	1.68
736.446	-28.12
736.891	41.58
737.335	-7.32
737.779	1.88
738.223	-27.62
738.667	-34.32
739.111	-17.22
739.555	73.08
739.999	26.58
740.443	14.38
740.887	-24.42
741.33	-21.02
741.774	11.88
742.218	-9.02
742.662	-39.02
743.106	-34.62
743.549	-13.22
743.993	35.48
744.437	-15.52
744.88	-27.12
745.324	-23.52
745.768	-7.92
746.211	-1.12
746.655	-13.22
747.098	13.58
747.542	61.38
747.985	25.38
748.429	-24.62
748.872	-29.32
749.315	7.18
749.759	27.98
750.202	17.58
750.645	-23.42
751.089	-22.32
751.532	-41.02
751.975	-19.72
752.418	1.58
752.861	5.68
753.305	17.48
753.748	-35.52
754.191	-9.22
754.634	5.08
755.077	12.88
755.52	10.18
755.963	-9.12
756.406	-20.32
756.849	-31.12
757.291	44.98
757.734	-24.52
758.177	-36.72
758.62	-18.22
759.063	10.48
759.505	-8.92
759.948	-6.52
760.391	-10.32
760.833	-5.62
761.276	-17.02
761.719	-22.82
762.161	24.38
762.604	2.88
763.046	-26.82
763.489	-9.92
763.931	19.38
764.374	-10.22
764.816	-15.92
765.258	-23.42
765.701	-13.22
766.143	-34.52
766.585	61.68
767.028	-13.42
767.47	-15.32
767.912	-20.22
768.354	-32.92
768.796	-9.92
769.238	34.88
769.681	-32.32
770.123	-22.32
770.565	30.48
771.007	-5.12
771.449	-27.72
771.891	11.98
772.333	-5.52
