节点DUV_HRD08281_00004.txt的数据
Date: Sun Jan 19 19:57:54 CST 2020
User: lab329
Spectrometer: HR+D0828
触发模式: 0
积分时间 (秒): 5.000000E-2
Scans to average: 10
启用暗噪声校正: true
启用非线性校正: false
滑动平均宽度: 0
X轴模式: Wavelengths
Number of Pixels in Spectrum: 2048
>>>>>Begin Spectral Data<<<<<
186.281	-7.69
186.758	-7.69
187.234	-7.69
187.71	-2.89
188.187	2.21
188.663	1.51
189.139	1.01
189.615	-0.69
190.091	3.31
190.567	1.61
191.043	-0.19
191.519	-3.99
191.995	0.01
192.471	0.11
192.947	3.61
193.423	0.41
193.899	2.01
194.375	-0.29
194.851	1.21
195.327	-1.89
195.803	0.91
196.278	8.61
196.754	-4.49
197.23	-1.99
197.706	-7.19
198.181	-0.49
198.657	0.61
199.133	0.31
199.608	-2.59
200.084	-1.39
200.559	-3.79
201.035	0.41
201.51	-4.69
201.986	-3.79
202.461	-1.29
202.937	-3.09
203.412	-2.79
203.887	-8.29
204.363	-3.39
204.838	-2.79
205.313	-1.89
205.789	0.61
206.264	-1.99
206.739	-0.89
207.214	4.71
207.689	-4.99
208.165	-1.09
208.64	-0.29
209.115	-5.09
209.59	-7.39
210.065	-0.99
210.54	-1.09
211.015	-5.49
211.49	-3.89
211.965	-2.19
212.44	-1.29
212.914	-2.49
213.389	-4.99
213.864	-0.69
214.339	-2.69
214.814	-6.19
215.288	-3.19
215.763	-3.79
216.238	-9.09
216.712	-2.09
217.187	-7.59
217.662	-3.59
218.136	-8.09
218.611	-6.29
219.085	-3.59
219.56	0.51
220.034	-0.99
220.509	-7.19
220.983	-5.59
221.458	-6.09
221.932	-4.39
222.406	-3.89
222.881	-2.59
223.355	-6.09
223.829	-0.49
224.303	-8.69
224.778	-6.09
225.252	-3.39
225.726	-4.59
226.2	-0.79
226.674	-9.09
227.148	-2.19
227.622	-6.39
228.096	-3.19
228.57	-0.09
229.044	-3.69
229.518	-1.99
229.992	-1.09
230.466	58.71
230.94	4.61
231.414	-1.19
231.888	-5.29
232.361	-2.29
232.835	-5.19
233.309	-0.99
233.783	-5.09
234.256	0.01
234.73	-2.09
235.204	-1.59
235.677	-4.59
236.151	-4.69
236.624	-1.89
237.098	-1.49
237.571	-5.59
238.045	-1.69
238.518	-3.49
238.992	-4.29
239.465	-3.09
239.939	-1.19
240.412	0.31
240.885	-5.09
241.359	-2.59
241.832	-3.59
242.305	-4.09
242.778	-5.09
243.251	-0.59
243.725	-3.19
244.198	-3.29
244.671	-5.39
245.144	-0.09
245.617	-0.79
246.09	-2.39
246.563	-7.99
247.036	-3.79
247.509	-2.99
247.982	-3.39
248.455	-6.69
248.928	-6.79
249.4	-4.29
249.873	-1.99
250.346	-5.59
250.819	1.91
251.292	-6.99
251.764	-4.49
252.237	1.21
252.71	-3.19
253.182	5.01
253.655	-6.89
254.127	-1.39
254.6	-2.59
255.073	22.21
255.545	-0.39
256.018	-0.89
256.49	-0.89
256.962	-6.79
257.435	-0.19
257.907	-8.19
258.379	1.21
258.852	-0.79
259.324	-0.79
259.796	0.61
260.269	-1.59
260.741	-4.09
261.213	-0.19
261.685	-5.79
262.157	-0.99
262.629	-0.79
263.101	-2.09
263.574	6.31
264.046	-4.79
264.518	-6.09
264.99	-0.29
265.461	-5.19
265.933	-0.69
266.405	-2.59
266.877	-5.19
267.349	-2.89
267.821	-2.49
268.293	-1.09
268.764	-2.59
269.236	-4.69
269.708	4.31
270.18	-0.19
270.651	-2.09
271.123	-3.49
271.594	-2.89
272.066	-7.49
272.538	3.21
273.009	-1.79
273.481	-1.09
273.952	-0.89
274.423	-6.99
274.895	-2.59
275.366	-1.39
275.838	-4.09
276.309	-1.09
276.78	0.51
277.252	-0.29
277.723	-4.39
278.194	-5.29
278.665	1.61
279.136	-1.99
279.608	-3.09
280.079	-0.89
280.55	-4.29
281.021	-6.89
281.492	-2.09
281.963	-0.39
282.434	-2.99
282.905	-1.59
283.376	-1.89
283.847	-3.09
284.318	2.61
284.789	-0.89
285.259	-6.19
285.73	-2.29
286.201	-0.99
286.672	0.01
287.143	-1.49
287.613	-2.29
288.084	-2.99
288.555	-3.99
289.025	-0.19
289.496	-0.69
289.966	-2.19
290.437	-3.39
290.907	1.01
291.378	-1.99
291.848	-2.69
292.319	-2.79
292.789	-0.19
293.26	-2.09
293.73	-3.89
294.2	0.61
294.671	-1.49
295.141	-2.69
295.611	-7.79
296.081	-7.79
296.552	-1.49
297.022	-1.39
297.492	-5.79
297.962	-3.49
298.432	-5.19
298.902	-0.09
299.372	-0.99
299.842	-4.39
300.312	-2.39
300.782	5.11
301.252	-0.59
301.722	-0.29
302.192	0.51
302.662	-1.19
303.132	1.81
303.602	-3.39
304.071	1.71
304.541	3.81
305.011	-7.49
305.481	-2.69
305.95	-2.49
306.42	-1.89
306.889	1.91
307.359	-2.29
307.829	3.91
308.298	-4.49
308.768	-4.39
309.237	1.71
309.707	1.31
310.176	-3.99
310.645	-0.39
311.115	-4.79
311.584	-5.19
312.054	-0.89
312.523	-2.99
312.992	-3.39
313.461	0.31
313.931	-4.09
314.4	2.11
314.869	3.11
315.338	1.21
315.807	-4.49
316.276	2.11
316.745	2.01
317.214	1.31
317.683	4.31
318.152	-1.39
318.621	4.51
319.09	3.51
319.559	7.71
320.028	3.71
320.497	9.81
320.966	4.61
321.435	9.61
321.903	11.91
322.372	17.61
322.841	24.61
323.31	41.81
323.778	78.41
324.247	179.51
324.715	389.41
325.184	868.21
325.653	1854.11
326.121	3720.31
326.59	6508.71
327.058	9580.31
327.527	12317.41
327.995	13652.61
328.463	13351.11
328.932	11052.91
329.4	7462.11
329.868	4313.21
330.337	2297.31
330.805	1132.51
331.273	552.51
331.741	277.01
332.21	146.21
332.678	85.01
333.146	51.31
333.614	31.21
334.082	24.31
334.55	21.11
335.018	17.51
335.486	10.01
335.954	9.31
336.422	6.21
336.89	14.31
337.358	6.81
337.826	7.11
338.294	8.61
338.762	4.61
339.229	6.11
339.697	5.01
340.165	7.01
340.633	4.81
341.1	0.61
341.568	4.41
342.035	1.81
342.503	5.71
342.971	1.41
343.438	3.71
343.906	-0.59
344.373	4.01
344.841	-0.39
345.308	3.51
345.776	7.21
346.243	8.21
346.71	2.11
347.178	-5.69
347.645	3.11
348.112	-0.19
348.58	-0.79
349.047	-1.29
349.514	0.51
349.981	-2.69
350.448	-0.29
350.915	4.91
351.383	0.11
351.85	-5.79
352.317	-1.59
352.784	-3.19
353.251	3.61
353.718	-4.09
354.185	-0.79
354.651	-2.99
355.118	-2.19
355.585	-2.49
356.052	0.61
356.519	-2.29
356.986	-0.19
357.452	-2.49
357.919	-6.69
358.386	-3.69
358.853	0.71
359.319	-6.29
359.786	-3.49
360.252	3.01
360.719	-3.19
361.185	-0.19
361.652	-0.99
362.118	-0.69
362.585	-1.89
363.051	-0.09
363.518	0.31
363.984	0.21
364.451	-4.99
364.917	-4.29
365.383	-6.29
365.849	-2.39
366.316	-4.59
366.782	-2.89
367.248	1.31
367.714	0.01
368.18	-2.69
368.647	-0.89
369.113	-4.89
369.579	0.91
370.045	-3.49
370.511	0.21
370.977	-3.09
371.443	0.01
371.909	-3.19
372.374	-4.49
372.84	-2.49
373.306	3.51
373.772	-1.29
374.238	-2.69
374.704	-2.59
375.169	-4.49
375.635	-2.29
376.101	-1.19
376.566	0.61
377.032	0.01
377.498	-4.89
377.963	-4.29
378.429	1.01
378.894	-4.39
379.36	-1.69
379.825	-0.69
380.291	-0.39
380.756	-5.39
381.222	-3.09
381.687	-6.79
382.152	-2.19
382.618	-0.59
383.083	-1.99
383.548	-4.59
384.013	-1.29
384.479	-0.69
384.944	-3.99
385.409	-3.29
385.874	-4.99
386.339	-4.89
386.804	-4.19
387.269	3.11
387.734	-1.29
388.199	-6.19
388.664	-4.59
389.129	-6.19
389.594	-1.39
390.059	-2.79
390.524	-5.59
390.989	-2.59
391.453	-1.19
391.918	-1.39
392.383	-6.49
392.848	-6.39
393.312	-1.99
393.777	0.21
394.242	-2.59
394.706	-3.09
395.171	-2.59
395.635	-3.89
396.1	-4.69
396.565	0.21
397.029	-6.89
397.493	-9.49
397.958	-0.39
398.422	3.71
398.887	-6.19
399.351	-2.79
399.815	-4.89
400.28	-5.39
400.744	-1.69
401.208	-1.99
401.672	-7.19
402.137	-1.69
402.601	-0.99
403.065	-2.69
403.529	-1.19
403.993	-1.49
404.457	-4.19
404.921	-2.39
405.385	-3.59
405.849	-3.29
406.313	-4.09
406.777	-9.79
407.241	3.31
407.705	-2.29
408.169	-3.39
408.632	-4.69
409.096	-0.99
409.56	4.91
410.024	-3.39
410.487	-5.19
410.951	-1.09
411.415	-2.69
411.878	-4.09
412.342	-0.69
412.806	-1.59
413.269	-0.59
413.733	-7.99
414.196	-3.89
414.66	0.01
415.123	-2.09
415.587	-7.49
416.05	-1.09
416.513	-2.59
416.977	-3.49
417.44	-7.69
417.903	-5.69
418.366	-5.69
418.83	-1.69
419.293	-7.29
419.756	-4.89
420.219	-1.79
420.682	-5.39
421.145	-4.99
421.608	-4.69
422.072	-2.39
422.535	-7.49
422.998	-3.09
423.46	-1.89
423.923	0.31
424.386	-5.39
424.849	-2.89
425.312	-8.39
425.775	1.41
426.238	-2.69
426.7	-4.99
427.163	-2.49
427.626	-4.49
428.089	-5.09
428.551	-4.39
429.014	-3.19
429.477	-1.89
429.939	-3.09
430.402	-12.59
430.864	-1.99
431.327	-1.09
431.789	-7.19
432.252	-3.09
432.714	-3.39
433.176	-4.19
433.639	-4.99
434.101	-4.89
434.563	-7.49
435.026	-5.49
435.488	-3.29
435.95	-4.29
436.412	-9.49
436.875	-4.09
437.337	-6.19
437.799	-4.39
438.261	-0.89
438.723	-2.99
439.185	-5.39
439.647	-2.99
440.109	-5.09
440.571	-0.99
441.033	-0.19
441.495	-1.19
441.957	-4.19
442.419	-5.49
442.881	-2.19
443.342	-1.79
443.804	-1.69
444.266	-5.79
444.728	-2.19
445.189	-2.09
445.651	-6.69
446.113	-2.09
446.574	-5.59
447.036	-7.69
447.497	-3.89
447.959	-0.59
448.421	-3.59
448.882	0.01
449.343	-6.99
449.805	-4.19
450.266	-0.99
450.728	-0.39
451.189	-0.39
451.65	-4.09
452.112	-1.79
452.573	-3.39
453.034	-6.59
453.495	-0.19
453.957	-1.59
454.418	-0.69
454.879	-6.79
455.34	-7.99
455.801	-0.59
456.262	-4.99
456.723	-7.89
457.184	-3.89
457.645	-7.49
458.106	-6.59
458.567	-5.69
459.028	-5.49
459.489	-1.99
459.95	-4.19
460.41	-6.49
460.871	-6.59
461.332	-7.29
461.793	-2.19
462.253	-8.49
462.714	-1.19
463.175	-3.29
463.635	-6.29
464.096	-8.09
464.556	-4.89
465.017	-5.09
465.478	-6.49
465.938	-6.19
466.398	-8.99
466.859	-2.59
467.319	-1.99
467.78	-6.99
468.24	-8.29
468.7	-8.09
469.161	-8.39
469.621	-7.09
470.081	-8.49
470.541	-6.79
471.002	-6.29
471.462	-9.79
471.922	-3.39
472.382	-8.99
472.842	-5.49
473.302	-6.69
473.762	-5.39
474.222	-7.19
474.682	-3.99
475.142	-5.09
475.602	-0.99
476.062	-5.49
476.522	-4.19
476.982	1.71
477.442	-5.19
477.901	-4.49
478.361	-1.99
478.821	-3.29
479.281	-4.29
479.74	-7.99
480.2	-9.29
480.659	-0.39
481.119	-0.19
481.579	-5.49
482.038	-8.99
482.498	-8.09
482.957	-2.79
483.417	-5.49
483.876	-6.99
484.336	-2.29
484.795	-8.39
485.254	-5.99
485.714	-7.99
486.173	-1.99
486.632	-1.19
487.091	-6.29
487.551	-3.49
488.01	-2.89
488.469	-6.49
488.928	-7.79
489.387	-11.19
489.846	-2.49
490.305	-4.19
490.764	-6.09
491.223	-2.99
491.682	-4.59
492.141	-6.59
492.6	-10.89
493.059	-6.19
493.518	-4.29
493.977	-9.19
494.436	-7.89
494.895	-3.69
495.353	-4.59
495.812	-4.49
496.271	-7.39
496.729	-3.69
497.188	-4.49
497.647	-11.09
498.105	-6.59
498.564	-3.19
499.022	-3.59
499.481	-11.29
499.939	-10.29
500.398	-4.39
500.856	-4.59
501.315	-6.49
501.773	-6.89
502.232	-7.99
502.69	-8.09
503.148	-11.89
503.606	-7.89
504.065	1.21
504.523	-3.99
504.981	-9.99
505.439	-5.99
505.897	-10.79
506.356	-5.79
506.814	-4.59
507.272	-8.59
507.73	-7.19
508.188	-7.29
508.646	-5.39
509.104	-5.09
509.562	-3.89
510.02	-8.29
510.477	-4.99
510.935	-5.49
511.393	-3.59
511.851	-4.09
512.309	-5.59
512.766	-9.09
513.224	-4.49
513.682	-12.89
514.139	-6.39
514.597	-4.19
515.055	-7.69
515.512	-3.79
515.97	-4.69
516.427	-2.89
516.885	-9.39
517.342	-5.69
517.8	-6.09
518.257	-3.49
518.714	-4.09
519.172	-10.19
519.629	-8.99
520.086	-8.19
520.544	-1.19
521.001	-5.39
521.458	-4.59
521.915	-3.79
522.373	-6.89
522.83	-7.99
523.287	-5.79
523.744	-3.89
524.201	-3.89
524.658	-8.79
525.115	-4.69
525.572	-3.89
526.029	-3.09
526.486	-4.79
526.943	-4.89
527.4	-5.09
527.857	-5.49
528.313	-5.69
528.77	-0.49
529.227	-3.79
529.684	-9.09
530.14	-9.29
530.597	0.31
531.054	-2.89
531.51	-11.49
531.967	-9.79
532.423	-5.79
532.88	-3.39
533.337	-5.49
533.793	-9.19
534.25	-5.09
534.706	-8.59
535.162	-7.69
535.619	-7.69
536.075	-7.49
536.531	-0.89
536.988	-3.49
537.444	-2.29
537.9	-3.19
538.356	-4.89
538.813	-5.39
539.269	-5.19
539.725	-7.69
540.181	-5.59
540.637	-9.19
541.093	-0.79
541.549	-6.39
542.005	-7.39
542.461	-3.69
542.917	-5.29
543.373	-7.89
543.829	-4.19
544.285	-13.39
544.741	-4.49
545.197	-3.79
545.652	-8.99
546.108	-5.49
546.564	-6.19
547.02	-12.19
547.475	-6.99
547.931	-11.79
548.387	-9.69
548.842	-3.29
549.298	-4.69
549.753	-10.49
550.209	0.51
550.664	-3.49
551.12	-5.29
551.575	-5.39
552.031	-4.39
552.486	-4.29
552.941	-11.49
553.397	6.91
553.852	-4.09
554.307	-9.49
554.762	-8.09
555.218	-10.39
555.673	-4.59
556.128	-7.29
556.583	-10.59
557.038	-9.79
557.493	-6.89
557.948	-5.69
558.403	-6.29
558.858	-7.29
559.313	-4.49
559.768	-9.59
560.223	-11.99
560.678	-3.39
561.133	-6.19
561.588	-3.09
562.043	-9.09
562.497	-6.79
562.952	-10.89
563.407	-11.09
563.862	-8.89
564.316	-8.89
564.771	-6.99
565.226	-9.49
565.68	-11.09
566.135	-8.19
566.589	-7.49
567.044	-9.89
567.498	-10.69
567.953	-8.89
568.407	-6.69
568.862	-8.49
569.316	-4.19
569.77	-5.89
570.225	-3.39
570.679	-2.29
571.133	-2.99
571.587	-9.29
572.042	-3.99
572.496	-6.89
572.95	-3.99
573.404	-5.59
573.858	-5.09
574.312	-5.59
574.766	-8.49
575.22	-6.99
575.674	-3.39
576.128	-6.69
576.582	-4.69
577.036	-6.59
577.49	-6.49
577.944	-5.99
578.398	-2.09
578.852	-3.69
579.305	-10.79
579.759	-8.89
580.213	-6.09
580.666	-5.99
581.12	-5.49
581.574	-9.29
582.027	-2.09
582.481	-2.09
582.935	-7.09
583.388	-6.29
583.842	-3.79
584.295	-6.59
584.748	-9.39
585.202	-6.19
585.655	-1.09
586.109	-4.99
586.562	-2.59
587.015	-5.79
587.469	-4.59
587.922	-12.29
588.375	-7.59
588.828	-3.39
589.281	-5.59
589.735	-8.99
590.188	-6.59
590.641	-5.09
591.094	-7.89
591.547	-8.39
592	-10.49
592.453	-7.99
592.906	-6.69
593.359	-4.29
593.812	-4.79
594.265	-2.29
594.717	-6.29
595.17	-9.49
595.623	-10.29
596.076	-6.09
596.529	-10.59
596.981	-3.39
597.434	0.11
597.887	-7.59
598.339	-6.19
598.792	-8.29
599.245	-8.79
599.697	-6.89
600.15	-5.59
600.602	-7.39
601.055	-3.79
601.507	-7.39
601.959	-1.79
602.412	-7.19
602.864	-6.29
603.316	-5.09
603.769	-8.89
604.221	-2.09
604.673	-8.19
605.126	-4.69
605.578	-7.19
606.03	-8.89
606.482	-4.79
606.934	-4.09
607.386	-6.29
607.838	0.51
608.29	2.61
608.742	0.61
609.194	-1.19
609.646	-4.99
610.098	-8.69
610.55	-7.29
611.002	-5.19
611.454	-10.39
611.906	-9.49
612.357	-8.19
612.809	-7.79
613.261	-4.99
613.713	0.91
614.164	-8.29
614.616	-7.09
615.068	-8.79
615.519	-4.09
615.971	-6.49
616.422	-9.89
616.874	-3.09
617.325	-7.19
617.777	-6.99
618.228	-7.09
618.68	-2.69
619.131	0.81
619.582	-8.39
620.034	-12.99
620.485	-5.19
620.936	-5.89
621.387	-4.99
621.839	-11.09
622.29	-8.39
622.741	-6.89
623.192	-6.69
623.643	-7.79
624.094	-7.79
624.545	-3.99
624.996	-9.09
625.447	-6.19
625.898	-3.39
626.349	-7.89
626.8	-12.79
627.251	-8.89
627.702	-5.89
628.153	-2.79
628.604	-10.19
629.054	-8.79
629.505	-3.69
629.956	-9.19
630.406	-7.09
630.857	-12.59
631.308	-6.29
631.758	-8.39
632.209	-11.59
632.66	-6.89
633.11	-6.89
633.561	-8.09
634.011	-3.79
634.461	-7.39
634.912	-5.99
635.362	-11.19
635.813	-15.59
636.263	-3.59
636.713	-6.69
637.164	-5.69
637.614	-9.39
638.064	-10.39
638.514	-9.39
638.964	-8.29
639.415	-6.39
639.865	-8.29
640.315	-6.39
640.765	-5.39
641.215	-3.49
641.665	-3.59
642.115	-7.59
642.565	-8.09
643.015	-11.59
643.465	-6.09
643.915	-5.29
644.364	-8.69
644.814	-10.19
645.264	-6.59
645.714	-8.89
646.163	-4.19
646.613	-7.49
647.063	-1.29
647.513	-7.59
647.962	-10.99
648.412	-3.09
648.861	-1.19
649.311	-10.89
649.76	-15.79
650.21	-8.29
650.659	-8.89
651.109	-6.99
651.558	-9.89
652.008	-4.19
652.457	-7.69
652.906	-6.89
653.356	-3.49
653.805	-3.29
654.254	-4.19
654.703	-12.29
655.152	-12.09
655.602	-6.89
656.051	-7.09
656.5	-8.09
656.949	-5.79
657.398	-3.99
657.847	-7.79
658.296	-8.69
658.745	-6.29
659.194	-5.19
659.643	-7.29
660.092	-8.59
660.541	-8.99
660.989	-7.19
661.438	-9.59
661.887	-7.59
662.336	-4.79
662.784	-10.39
663.233	-9.29
663.682	-3.89
664.13	-6.29
664.579	-3.69
665.028	-7.49
665.476	-7.49
665.925	-9.99
666.373	-5.59
666.822	-13.79
667.27	-8.99
667.719	-8.39
668.167	-12.39
668.615	-6.29
669.064	-8.39
669.512	-7.69
669.96	-7.59
670.408	-6.99
670.857	-7.59
671.305	-6.19
671.753	-6.99
672.201	-3.29
672.649	-6.39
673.097	-4.39
673.545	-5.59
673.993	-11.79
674.441	-7.19
674.889	-7.79
675.337	-11.29
675.785	-6.09
676.233	-6.19
676.681	-5.49
677.129	-7.39
677.577	-5.29
678.025	-5.89
678.472	-7.99
678.92	-3.99
679.368	-9.89
679.815	-2.59
680.263	-6.89
680.711	-6.19
681.158	-5.39
681.606	-5.19
682.053	-7.99
682.501	-8.59
682.948	-8.99
683.396	-3.69
683.843	-1.19
684.291	-9.49
684.738	-10.19
685.185	-2.19
685.633	-0.69
686.08	-8.99
686.527	-12.39
686.974	-8.79
687.422	-7.19
687.869	-6.89
688.316	-8.39
688.763	-9.79
689.21	-8.49
689.657	-6.39
690.104	-1.19
690.551	-7.99
690.998	-11.39
691.445	-8.49
691.892	-1.89
692.339	-8.29
692.786	-7.59
693.233	-7.09
693.68	-4.99
694.127	-5.19
694.573	-5.29
695.02	-5.79
695.467	-6.99
695.913	-4.69
696.36	-5.49
696.807	-8.19
697.253	-2.29
697.7	-8.79
698.146	-7.99
698.593	-11.59
699.039	-4.49
699.486	-6.99
699.932	-3.39
700.379	-6.29
700.825	-4.99
701.272	-8.69
701.718	0.51
702.164	-7.99
702.61	-4.29
703.057	-0.29
703.503	-5.59
703.949	-7.39
704.395	-1.69
704.841	-3.39
705.287	-7.59
705.734	-6.39
706.18	-5.69
706.626	-5.09
707.072	-8.59
707.518	-7.19
707.964	-8.29
708.409	-7.49
708.855	-10.89
709.301	-8.49
709.747	-6.19
710.193	-6.69
710.639	-3.99
711.084	-2.89
711.53	-1.89
711.976	-6.69
712.421	-7.19
712.867	-3.09
713.313	-2.09
713.758	-7.69
714.204	-7.49
714.649	-4.19
715.095	-6.69
715.54	-7.49
715.986	-4.39
716.431	2.61
716.877	-5.49
717.322	-6.99
717.767	-7.49
718.213	-6.29
718.658	-5.49
719.103	-6.29
719.548	-6.49
719.994	-5.19
720.439	-8.49
720.884	-5.89
721.329	-5.59
721.774	-4.29
722.219	-6.09
722.664	-5.79
723.109	-1.79
723.554	-5.19
723.999	-5.29
724.444	-7.99
724.889	-8.69
725.334	-2.49
725.779	-7.99
726.223	-12.49
726.668	-7.09
727.113	-7.69
727.558	-8.79
728.002	-7.79
728.447	-4.09
728.892	-4.49
729.336	-4.09
729.781	-6.69
730.225	-8.29
730.67	-5.79
731.114	-5.99
731.559	-8.99
732.003	-6.39
732.448	-5.79
732.892	-2.19
733.337	-7.99
733.781	-5.69
734.225	-6.19
734.67	-8.09
735.114	-7.59
735.558	-6.29
736.002	-12.39
736.446	-6.29
736.891	-3.79
737.335	-4.69
737.779	-10.29
738.223	-9.19
738.667	-7.79
739.111	-5.39
739.555	-7.79
739.999	-3.89
740.443	-4.09
740.887	-3.09
741.33	-8.49
741.774	-6.99
742.218	-6.59
742.662	-5.39
743.106	-5.79
743.549	-6.69
743.993	-4.59
744.437	-2.59
744.88	-3.19
745.324	-6.29
745.768	-7.49
746.211	-7.09
746.655	-6.99
747.098	-3.59
747.542	-3.49
747.985	-3.19
748.429	-2.59
748.872	-7.19
749.315	3.51
749.759	-1.59
750.202	-5.89
750.645	-4.89
751.089	-9.89
751.532	-5.39
751.975	-5.69
752.418	-6.69
752.861	-6.29
753.305	-3.19
753.748	-11.69
754.191	-8.49
754.634	-6.79
755.077	-7.99
755.52	-3.39
755.963	-1.49
756.406	-5.59
756.849	-8.49
757.291	-2.59
757.734	-0.39
758.177	-6.99
758.62	-11.49
759.063	-2.29
759.505	-0.39
759.948	-4.29
760.391	-8.79
760.833	-11.09
761.276	-1.49
761.719	-9.39
762.161	-4.39
762.604	-9.59
763.046	-6.29
763.489	-8.49
763.931	-8.29
764.374	-7.49
764.816	-3.09
765.258	-10.59
765.701	-1.59
766.143	-5.39
766.585	-2.79
767.028	-6.19
767.47	-2.69
767.912	-3.49
768.354	-1.69
768.796	-9.09
769.238	-5.99
769.681	-3.29
770.123	-2.69
770.565	-8.79
771.007	-7.39
771.449	-6.09
771.891	-1.89
772.333	-4.39
772.774	-8.09
773.216	-3.59
773.658	0.71
774.1	-10.09
774.542	-10.89
774.984	-3.29
775.425	-3.99
775.867	-8.69
776.309	-5.19
776.75	-5.89
777.192	-7.69
777.634	-9.39
778.075	-5.59
778.517	-3.59
778.958	-8.79
779.4	-3.39
779.841	-8.39
780.283	-3.69
780.724	-3.99
781.165	-4.19
781.607	-2.89
782.048	-2.29
782.489	-3.89
782.931	-5.29
783.372	-2.89
783.813	-4.29
784.254	-1.99
784.695	-6.39
785.136	-1.69
785.578	-2.39
786.019	-4.19
786.46	-3.19
786.901	-7.99
787.342	-5.69
787.783	-8.99
788.224	-7.69
788.664	-3.59
789.105	-5.69
789.546	-3.69
789.987	-6.29
790.428	-2.69
790.869	-2.19
791.309	-5.69
791.75	-4.39
792.191	-1.69
792.631	-5.69
793.072	-5.39
793.513	-5.49
793.953	-6.99
