节点DUV_HRD08281_00002.txt的数据
Date: Sun Jan 19 19:56:56 CST 2020
User: lab329
Spectrometer: HR+D0828
触发模式: 0
积分时间 (秒): 5.000000E-2
Scans to average: 10
启用暗噪声校正: true
启用非线性校正: false
滑动平均宽度: 0
X轴模式: Wavelengths
Number of Pixels in Spectrum: 2048
>>>>>Begin Spectral Data<<<<<
186.281	-6.94
186.758	-6.94
187.234	-6.94
187.71	-3.14
188.187	-0.84
188.663	2.76
189.139	-0.94
189.615	1.86
190.091	-1.54
190.567	2.96
191.043	-5.94
191.519	2.36
191.995	3.26
192.471	-0.24
192.947	-1.14
193.423	-1.04
193.899	2.86
194.375	5.66
194.851	-0.74
195.327	-0.14
195.803	0.16
196.278	5.96
196.754	-0.74
197.23	0.66
197.706	1.46
198.181	-1.14
198.657	-7.74
199.133	0.06
199.608	5.26
200.084	-7.34
200.559	-0.54
201.035	-0.74
201.51	-1.14
201.986	-5.84
202.461	-3.54
202.937	-0.74
203.412	-1.24
203.887	0.86
204.363	-1.44
204.838	1.26
205.313	-4.64
205.789	-4.84
206.264	-7.54
206.739	0.86
207.214	0.96
207.689	-4.94
208.165	-4.84
208.64	-4.24
209.115	-1.24
209.59	-6.24
210.065	-2.24
210.54	-5.74
211.015	-4.94
211.49	-10.14
211.965	2.16
212.44	-5.24
212.914	-0.74
213.389	-0.74
213.864	-1.24
214.339	-1.14
214.814	-7.44
215.288	-3.94
215.763	0.06
216.238	-3.44
216.712	-5.44
217.187	-3.34
217.662	1.46
218.136	-0.64
218.611	-7.74
219.085	-6.84
219.56	0.86
220.034	-2.84
220.509	-9.24
220.983	-3.34
221.458	-0.84
221.932	-1.54
222.406	-4.64
222.881	-2.74
223.355	5.76
223.829	-0.84
224.303	-6.04
224.778	-3.84
225.252	-5.04
225.726	-1.94
226.2	-6.44
226.674	-5.84
227.148	0.06
227.622	-2.34
228.096	-6.04
228.57	4.86
229.044	-3.24
229.518	-2.54
229.992	0.76
230.466	52.16
230.94	3.46
231.414	-7.34
231.888	-3.34
232.361	1.06
232.835	-2.74
233.309	-1.64
233.783	-0.34
234.256	-4.24
234.73	-4.34
235.204	-6.84
235.677	0.96
236.151	-5.14
236.624	-3.34
237.098	-4.94
237.571	-0.14
238.045	-0.74
238.518	-6.34
238.992	0.96
239.465	-5.44
239.939	1.26
240.412	0.66
240.885	-7.04
241.359	1.16
241.832	2.56
242.305	2.66
242.778	-6.64
243.251	-5.24
243.725	-2.34
244.198	-1.94
244.671	-8.94
245.144	-4.04
245.617	-1.14
246.09	-5.04
246.563	-0.94
247.036	-6.64
247.509	-1.84
247.982	-1.84
248.455	-4.24
248.928	-4.44
249.4	-0.64
249.873	-2.74
250.346	-1.84
250.819	-2.34
251.292	1.56
251.764	-3.14
252.237	1.16
252.71	0.66
253.182	-2.04
253.655	-1.44
254.127	0.06
254.6	3.46
255.073	25.06
255.545	0.06
256.018	0.86
256.49	-2.84
256.962	-2.14
257.435	-5.64
257.907	1.36
258.379	-1.44
258.852	-1.14
259.324	-0.04
259.796	2.86
260.269	-2.54
260.741	-4.34
261.213	0.86
261.685	-1.74
262.157	1.76
262.629	1.66
263.101	2.16
263.574	1.06
264.046	-5.14
264.518	-4.84
264.99	-0.54
265.461	3.76
265.933	-0.84
266.405	-3.34
266.877	1.46
267.349	-0.84
267.821	-0.44
268.293	-1.14
268.764	-2.74
269.236	2.76
269.708	-2.24
270.18	-5.14
270.651	-3.54
271.123	-0.44
271.594	-3.04
272.066	0.76
272.538	3.16
273.009	0.46
273.481	1.76
273.952	-6.84
274.423	-4.94
274.895	-3.14
275.366	3.96
275.838	-4.04
276.309	-1.24
276.78	3.46
277.252	2.26
277.723	0.06
278.194	-1.54
278.665	1.46
279.136	-3.64
279.608	-6.14
280.079	-4.44
280.55	3.26
281.021	-3.54
281.492	3.86
281.963	0.96
282.434	2.66
282.905	-5.04
283.376	-1.64
283.847	2.66
284.318	3.06
284.789	-3.44
285.259	1.66
285.73	3.06
286.201	0.96
286.672	-4.44
287.143	3.16
287.613	1.16
288.084	-3.14
288.555	-3.64
289.025	0.86
289.496	1.66
289.966	-0.64
290.437	-1.84
290.907	7.06
291.378	4.66
291.848	-8.14
292.319	-5.24
292.789	5.36
293.26	-1.24
293.73	-2.24
294.2	-5.84
294.671	3.36
295.141	4.16
295.611	1.46
296.081	-2.64
296.552	0.56
297.022	1.36
297.492	-0.04
297.962	-4.14
298.432	5.36
298.902	4.46
299.372	-2.74
299.842	2.46
300.312	-3.64
300.782	0.66
301.252	-2.94
301.722	-1.24
302.192	2.96
302.662	-0.34
303.132	-3.24
303.602	-2.04
304.071	3.06
304.541	4.56
305.011	-3.64
305.481	-1.84
305.95	-2.64
306.42	-0.04
306.889	-5.74
307.359	-3.24
307.829	-2.64
308.298	-1.44
308.768	-0.04
309.237	-0.34
309.707	2.96
310.176	-1.34
310.645	-1.54
311.115	4.66
311.584	1.86
312.054	-1.14
312.523	-3.34
312.992	0.16
313.461	-2.34
313.931	0.66
314.4	2.16
314.869	2.16
315.338	-1.24
315.807	0.46
316.276	0.66
316.745	0.76
317.214	2.66
317.683	-1.44
318.152	-0.04
318.621	3.96
319.09	-2.54
319.559	0.46
320.028	0.96
320.497	3.76
320.966	-1.04
321.435	-2.84
321.903	1.76
322.372	1.36
322.841	1.06
323.31	0.76
323.778	6.56
324.247	-0.54
324.715	6.16
325.184	1.66
325.653	6.16
326.121	7.86
326.59	4.16
327.058	6.86
327.527	13.26
327.995	10.56
328.463	7.96
328.932	14.56
329.4	12.86
329.868	19.66
330.337	14.16
330.805	19.86
331.273	25.16
331.741	26.36
332.21	28.06
332.678	48.76
333.146	72.86
333.614	119.46
334.082	236.56
334.55	493.06
335.018	1015.06
335.486	2030.76
335.954	3822.16
336.422	6684.66
336.89	10600.06
337.358	14078.16
337.826	15589.46
338.294	15589.46
338.762	15589.46
339.229	15460.16
339.697	12204.46
340.165	7647.26
340.633	4374.46
341.1	2275.06
341.568	1052.46
342.035	516.46
342.503	271.76
342.971	144.86
343.438	90.56
343.906	56.66
344.373	47.16
344.841	32.16
345.308	26.46
345.776	26.76
346.243	23.96
346.71	20.96
347.178	16.96
347.645	22.36
348.112	20.66
348.58	8.46
349.047	16.76
349.514	10.36
349.981	11.96
350.448	16.26
350.915	13.26
351.383	11.16
351.85	10.66
352.317	6.96
352.784	10.36
353.251	7.26
353.718	7.76
354.185	6.56
354.651	7.16
355.118	-2.44
355.585	5.56
356.052	4.96
356.519	8.06
356.986	3.76
357.452	-1.04
357.919	2.56
358.386	6.76
358.853	-0.44
359.319	-0.84
359.786	0.56
360.252	2.56
360.719	6.46
361.185	-2.64
361.652	4.96
362.118	0.06
362.585	2.26
363.051	0.96
363.518	1.76
363.984	2.46
364.451	1.36
364.917	-2.24
365.383	0.06
365.849	2.26
366.316	-2.04
366.782	-2.44
367.248	-2.14
367.714	-0.84
368.18	-3.24
368.647	-4.04
369.113	1.76
369.579	2.06
370.045	1.56
370.511	0.46
370.977	0.26
371.443	1.96
371.909	0.66
372.374	-5.74
372.84	-0.84
373.306	-0.74
373.772	-1.24
374.238	2.96
374.704	1.26
375.169	-0.34
375.635	-1.94
376.101	-1.04
376.566	1.36
377.032	1.36
377.498	-6.24
377.963	-0.64
378.429	-0.34
378.894	0.06
379.36	1.16
379.825	2.66
380.291	3.56
380.756	-1.14
381.222	-6.24
381.687	-3.54
382.152	3.06
382.618	-0.04
383.083	0.46
383.548	-1.14
384.013	2.46
384.479	0.06
384.944	-4.44
385.409	3.66
385.874	-1.94
386.339	-6.14
386.804	0.96
387.269	0.46
387.734	-1.64
388.199	-0.84
388.664	-3.04
389.129	-1.44
389.594	-3.24
390.059	-4.74
390.524	-1.94
390.989	1.76
391.453	-0.24
391.918	-6.54
392.383	-3.64
392.848	-0.84
393.312	-0.84
393.777	-0.84
394.242	3.06
394.706	-2.04
395.171	-1.44
395.635	-4.24
396.1	0.26
396.565	1.66
397.029	-3.34
397.493	-6.04
397.958	3.06
398.422	-2.04
398.887	-3.24
399.351	-2.24
399.815	-0.64
400.28	-1.14
400.744	-0.54
401.208	-7.44
401.672	1.86
402.137	-0.24
402.601	0.36
403.065	-2.64
403.529	-3.24
403.993	0.06
404.457	-3.54
404.921	-4.64
405.385	0.86
405.849	-2.54
406.313	-3.64
406.777	1.56
407.241	5.76
407.705	0.36
408.169	-2.34
408.632	-2.74
409.096	-2.94
409.56	-1.64
410.024	-3.74
410.487	-1.24
410.951	-4.04
411.415	0.36
411.878	-5.84
412.342	0.96
412.806	-0.94
413.269	-3.14
413.733	-5.04
414.196	2.26
414.66	3.36
415.123	1.76
415.587	-1.14
416.05	-1.54
416.513	-2.24
416.977	-1.54
417.44	-7.74
417.903	-2.04
418.366	-0.14
418.83	-3.64
419.293	-0.14
419.756	-2.74
420.219	1.96
420.682	-5.44
421.145	-4.74
421.608	-1.74
422.072	-1.74
422.535	-1.84
422.998	-1.34
423.46	-0.54
423.923	-0.14
424.386	-2.64
424.849	0.66
425.312	1.76
425.775	2.96
426.238	-3.14
426.7	-2.94
427.163	-5.84
427.626	-2.24
428.089	-4.04
428.551	-3.14
429.014	-1.64
429.477	-0.64
429.939	-4.54
430.402	0.66
430.864	-4.94
431.327	0.46
431.789	-3.74
432.252	-2.54
432.714	-1.64
433.176	-2.44
433.639	-2.94
434.101	4.46
434.563	-0.24
435.026	-3.74
435.488	-0.04
435.95	-2.54
436.412	-0.54
436.875	-2.24
437.337	-5.14
437.799	1.36
438.261	-1.64
438.723	-1.64
439.185	-2.24
439.647	-6.44
440.109	-3.94
440.571	-8.34
441.033	-4.54
441.495	-2.34
441.957	-2.64
442.419	-5.24
442.881	-1.44
443.342	-0.54
443.804	-3.94
444.266	-5.34
444.728	-4.14
445.189	-3.34
445.651	-3.24
446.113	-1.94
446.574	1.26
447.036	-2.94
447.497	-8.94
447.959	-4.54
448.421	-5.84
448.882	-2.84
449.343	-2.64
449.805	-8.64
450.266	-2.64
450.728	0.36
451.189	-2.24
451.65	-3.14
452.112	-3.94
452.573	-1.74
453.034	-4.44
453.495	-3.64
453.957	0.36
454.418	-3.94
454.879	-5.24
455.34	-5.64
455.801	-3.04
456.262	-4.94
456.723	-2.84
457.184	-6.74
457.645	-0.44
458.106	-2.44
458.567	-2.44
459.028	6.26
459.489	-5.84
459.95	-4.34
460.41	-8.74
460.871	-7.14
461.332	-5.54
461.793	-5.64
462.253	-8.44
462.714	3.06
463.175	0.16
463.635	-4.94
464.096	-8.04
464.556	-2.54
465.017	-2.14
465.478	-5.94
465.938	-6.34
466.398	0.66
466.859	5.16
467.319	-2.94
467.78	-3.94
468.24	-3.14
468.7	-1.14
469.161	-6.54
469.621	-6.04
470.081	-2.54
470.541	2.46
471.002	-6.24
471.462	-3.44
471.922	-1.64
472.382	-3.44
472.842	-1.24
473.302	-2.74
473.762	-5.94
474.222	-7.34
474.682	-8.44
475.142	-3.14
475.602	0.16
476.062	-4.24
476.522	-6.14
476.982	1.26
477.442	-1.14
477.901	-3.14
478.361	-6.24
478.821	4.16
479.281	-5.34
479.74	-1.34
480.2	-7.94
480.659	-0.54
481.119	2.66
481.579	-4.84
482.038	-3.84
482.498	-4.24
482.957	-2.04
483.417	-1.74
483.876	-3.84
484.336	-0.04
484.795	-0.24
485.254	-6.34
485.714	-5.74
486.173	2.16
486.632	0.26
487.091	-5.34
487.551	-4.14
488.01	-4.44
488.469	-4.54
488.928	-6.74
489.387	-2.54
489.846	0.16
490.305	-7.04
490.764	-8.44
491.223	-1.34
491.682	-2.14
492.141	-2.94
492.6	-6.04
493.059	-4.24
493.518	-4.64
493.977	-3.24
494.436	-8.24
494.895	1.36
495.353	-2.24
495.812	-5.94
496.271	-5.54
496.729	-5.24
497.188	-5.54
497.647	-6.14
498.105	-6.94
498.564	-1.44
499.022	-1.54
499.481	-9.44
499.939	-0.64
500.398	-7.34
500.856	-3.84
501.315	-7.04
501.773	-3.44
502.232	-5.64
502.69	-3.24
503.148	-4.24
503.606	-1.54
504.065	-2.44
504.523	-2.94
504.981	-5.64
505.439	-0.14
505.897	-2.64
506.356	-4.44
506.814	-7.24
507.272	-2.84
507.73	-6.64
508.188	-6.54
508.646	-7.14
509.104	-3.64
509.562	-1.04
510.02	-3.94
510.477	-4.74
510.935	-4.04
511.393	-3.54
511.851	-9.44
512.309	-6.94
512.766	-5.24
513.224	-3.64
513.682	-8.84
514.139	-10.94
514.597	0.26
515.055	-4.04
515.512	-6.04
515.97	-5.34
516.427	-6.24
516.885	-7.04
517.342	-5.94
517.8	-8.94
518.257	-3.34
518.714	2.96
519.172	-6.04
519.629	-1.74
520.086	-1.64
520.544	-2.64
521.001	-5.34
521.458	-5.34
521.915	-0.44
522.373	-11.14
522.83	-11.14
523.287	-0.64
523.744	-8.24
524.201	-0.04
524.658	0.26
525.115	-6.34
525.572	-5.04
526.029	-5.54
526.486	-8.24
526.943	1.66
527.4	-4.74
527.857	-3.84
528.313	-4.24
528.77	-4.74
529.227	-4.74
529.684	-4.64
530.14	-1.64
530.597	-2.64
531.054	-5.74
531.51	-4.84
531.967	-2.74
532.423	-5.24
532.88	-3.04
533.337	-3.54
533.793	-5.34
534.25	-4.14
534.706	-4.14
535.162	-4.94
535.619	-2.34
536.075	-4.04
536.531	-5.44
536.988	-3.04
537.444	-5.44
537.9	-3.54
538.356	-5.94
538.813	-7.64
539.269	-2.34
539.725	-5.34
540.181	-1.44
540.637	-9.24
541.093	-5.14
541.549	-6.14
542.005	-2.24
542.461	-2.94
542.917	-2.94
543.373	-4.54
543.829	-7.44
544.285	-5.14
544.741	-5.94
545.197	-0.04
545.652	-3.14
546.108	-5.54
546.564	0.36
547.02	-2.74
547.475	-8.14
547.931	-8.24
548.387	-4.14
548.842	-7.54
549.298	-0.94
549.753	-4.44
550.209	-1.74
550.664	-8.44
551.12	-9.34
551.575	-9.34
552.031	-6.54
552.486	-2.64
552.941	-7.14
553.397	6.26
553.852	-4.84
554.307	-3.94
554.762	-6.04
555.218	-2.54
555.673	-4.74
556.128	-10.94
556.583	-9.44
557.038	-9.54
557.493	-1.94
557.948	-14.04
558.403	-3.74
558.858	-2.84
559.313	-6.74
559.768	-10.24
560.223	-10.04
560.678	-2.74
561.133	-6.94
561.588	-3.54
562.043	-5.14
562.497	-2.44
562.952	-6.24
563.407	-9.84
563.862	-6.14
564.316	-1.14
564.771	-6.84
565.226	-10.24
565.68	-7.54
566.135	-3.54
566.589	-6.84
567.044	-9.04
567.498	-4.84
567.953	-2.34
568.407	-8.04
568.862	-6.54
569.316	-3.64
569.77	-4.14
570.225	-5.94
570.679	-9.24
571.133	-3.94
571.587	-5.14
572.042	-7.04
572.496	-7.94
572.95	-5.64
573.404	0.26
573.858	-0.04
574.312	-8.24
574.766	-5.74
575.22	-4.74
575.674	-10.44
576.128	-6.34
576.582	-3.14
577.036	-3.34
577.49	-6.54
577.944	-3.64
578.398	-1.74
578.852	-10.54
579.305	-10.04
579.759	-5.14
580.213	-13.34
580.666	-9.34
581.12	-9.94
581.574	-3.34
582.027	-0.34
582.481	-2.44
582.935	-12.04
583.388	-2.94
583.842	-3.44
584.295	-8.14
584.748	-9.54
585.202	-5.04
585.655	-8.44
586.109	-5.64
586.562	-7.54
587.015	-5.04
587.469	-8.34
587.922	-6.54
588.375	-8.74
588.828	-7.24
589.281	-6.14
589.735	-3.84
590.188	-4.34
590.641	-3.64
591.094	-9.94
591.547	-9.44
592	-12.74
592.453	-5.04
592.906	-6.44
593.359	-6.44
593.812	-8.94
594.265	-0.34
594.717	-2.74
595.17	-11.44
595.623	-4.84
596.076	-7.74
596.529	-7.94
596.981	-11.84
597.434	-7.14
597.887	-4.44
598.339	-8.34
598.792	-10.64
599.245	-2.34
599.697	-5.54
600.15	-2.94
600.602	-6.44
601.055	-1.94
601.507	-5.64
601.959	-6.24
602.412	-10.34
602.864	-2.04
603.316	-6.14
603.769	-12.34
604.221	-2.44
604.673	-2.14
605.126	-5.64
605.578	-6.34
606.03	-9.14
606.482	-2.44
606.934	-3.74
607.386	-8.64
607.838	-4.44
608.29	-2.94
608.742	-5.34
609.194	-9.14
609.646	-1.64
610.098	-4.74
610.55	-6.14
611.002	-7.04
611.454	-7.24
611.906	-5.64
612.357	-6.34
612.809	-5.74
613.261	-9.64
613.713	-3.54
614.164	-5.24
614.616	-7.04
615.068	-0.64
615.519	-3.84
615.971	-3.34
616.422	-9.84
616.874	-4.84
617.325	-3.74
617.777	-5.64
618.228	-13.84
618.68	-2.44
619.131	-7.64
619.582	-9.94
620.034	-3.74
620.485	-2.54
620.936	-6.04
621.387	-6.14
621.839	-9.14
622.29	-2.74
622.741	-3.34
623.192	-11.64
623.643	-7.14
624.094	-4.24
624.545	-5.64
624.996	-8.94
625.447	-5.24
625.898	-7.34
626.349	-6.24
626.8	-13.14
627.251	-0.44
627.702	-2.84
628.153	-7.34
628.604	-11.54
629.054	-10.84
629.505	-3.64
629.956	-2.44
630.406	-2.54
630.857	-1.84
631.308	-0.94
631.758	-6.84
632.209	-7.94
632.66	-7.14
633.11	-9.74
633.561	-8.94
634.011	-10.44
634.461	-6.54
634.912	-4.94
635.362	-7.24
635.813	-8.44
636.263	-6.04
636.713	-7.84
637.164	-7.74
637.614	-5.94
638.064	-9.44
638.514	-6.54
638.964	-9.14
639.415	-10.54
639.865	-5.24
640.315	-5.24
640.765	-7.94
641.215	-9.44
641.665	-6.94
642.115	-9.04
642.565	-6.44
643.015	-3.64
643.465	-3.94
643.915	-5.64
644.364	-3.74
644.814	-0.74
645.264	-4.34
645.714	-5.44
646.163	-13.54
646.613	-6.64
647.063	-4.94
647.513	-3.94
647.962	-4.24
648.412	-3.64
648.861	-7.24
649.311	-9.44
649.76	-6.94
650.21	-6.84
650.659	-3.94
651.109	-5.04
651.558	-3.04
652.008	-6.34
652.457	-6.24
652.906	-5.64
653.356	-5.34
653.805	-6.54
654.254	-2.74
654.703	-7.74
655.152	-4.24
655.602	-6.04
656.051	-6.14
656.5	-7.24
656.949	-11.64
657.398	-6.04
657.847	-8.24
658.296	-10.54
658.745	-1.54
659.194	-5.94
659.643	-12.84
660.092	-7.24
660.541	-6.54
660.989	-6.44
661.438	-6.44
661.887	-11.14
662.336	-0.84
662.784	-2.74
663.233	-6.74
663.682	-8.84
664.13	-3.64
664.579	-5.54
665.028	-6.74
665.476	-2.94
665.925	-5.74
666.373	-4.24
666.822	-10.84
667.27	-8.64
667.719	-6.84
668.167	-5.24
668.615	-7.14
669.064	-8.14
669.512	-5.84
669.96	-2.54
670.408	-8.54
670.857	-3.54
671.305	-7.34
671.753	-5.14
672.201	-9.24
672.649	-6.04
673.097	-3.24
673.545	-0.04
673.993	-5.94
674.441	-3.34
674.889	-3.14
675.337	-6.64
675.785	-8.64
676.233	-2.74
676.681	-8.54
677.129	-11.64
677.577	-14.04
678.025	-3.54
678.472	-2.24
678.92	-4.94
679.368	-7.14
679.815	-8.94
680.263	-2.04
680.711	-5.54
681.158	-2.74
681.606	-8.04
682.053	-5.64
682.501	-3.34
682.948	-1.74
683.396	-5.04
683.843	-5.44
684.291	-7.64
684.738	-3.84
685.185	-3.04
685.633	-3.34
686.08	-11.74
686.527	-2.84
686.974	-4.24
687.422	-8.84
687.869	-4.54
688.316	-3.94
688.763	-6.94
689.21	-5.84
689.657	-7.04
690.104	-9.34
690.551	-6.14
690.998	-4.04
691.445	-5.54
691.892	-2.64
692.339	-1.64
692.786	-8.14
693.233	-9.74
693.68	-3.04
694.127	-4.24
694.573	-7.84
695.02	-8.04
695.467	-5.74
695.913	-7.44
696.36	-9.04
696.807	-6.04
697.253	-0.54
697.7	-2.64
698.146	-8.44
698.593	-7.54
699.039	-6.14
699.486	-5.94
699.932	-8.04
700.379	-4.94
700.825	-7.04
701.272	-4.14
701.718	-9.64
702.164	-3.04
702.61	-1.64
703.057	-7.84
703.503	-10.54
703.949	-7.24
704.395	-6.14
704.841	-7.94
705.287	-5.14
705.734	-1.14
706.18	-3.74
706.626	-3.94
707.072	-7.54
707.518	-7.94
707.964	-6.34
708.409	-5.74
708.855	-6.24
709.301	-4.14
709.747	-2.54
710.193	-5.74
710.639	-4.84
711.084	-0.04
711.53	-9.84
711.976	-9.34
712.421	-5.94
712.867	-6.04
713.313	-0.44
713.758	-8.44
714.204	-5.44
714.649	0.16
715.095	-8.04
715.54	-6.14
715.986	-5.14
716.431	-5.14
716.877	-10.54
717.322	-8.84
717.767	0.56
718.213	-2.04
718.658	-4.24
719.103	-10.34
719.548	-4.74
719.994	-3.44
720.439	-6.24
720.884	-7.44
721.329	-1.94
721.774	-5.44
722.219	-10.64
722.664	1.26
723.109	-4.04
723.554	-9.94
723.999	-4.84
724.444	-3.54
724.889	-4.24
725.334	-2.64
725.779	-8.54
726.223	-7.24
726.668	-5.04
727.113	-3.14
727.558	-5.94
728.002	-8.74
728.447	-5.54
728.892	-3.14
729.336	-8.44
729.781	-2.04
730.225	0.16
730.67	-6.24
731.114	-5.74
731.559	-8.74
732.003	-0.04
732.448	-4.84
732.892	-7.54
733.337	-0.64
733.781	-0.54
734.225	-4.84
734.67	-2.24
735.114	-5.44
735.558	-3.34
736.002	-4.44
736.446	-6.94
736.891	1.66
737.335	-2.84
737.779	-2.44
738.223	0.46
738.667	-3.34
739.111	-6.34
739.555	-3.44
739.999	-1.24
740.443	-7.24
740.887	-4.64
741.33	-6.74
741.774	-1.74
742.218	-2.24
742.662	-8.74
743.106	-6.44
743.549	-5.34
743.993	-1.74
744.437	-8.34
744.88	-5.24
745.324	1.76
745.768	-3.14
746.211	-5.84
746.655	-4.24
747.098	-5.74
747.542	-2.04
747.985	-2.24
748.429	-6.24
748.872	-4.74
749.315	-5.44
749.759	-5.34
750.202	-5.94
750.645	-4.24
751.089	-0.84
751.532	-6.34
751.975	-10.84
752.418	-2.64
752.861	-7.84
753.305	-5.04
753.748	4.16
754.191	-2.84
754.634	-1.14
755.077	-4.44
755.52	-3.44
755.963	-0.94
756.406	-5.94
756.849	-8.54
757.291	-5.14
757.734	-3.34
758.177	-3.54
758.62	-3.74
759.063	-1.74
759.505	-5.44
759.948	-5.34
760.391	-6.34
760.833	-2.84
761.276	-3.24
761.719	-6.24
762.161	-4.54
762.604	-7.84
763.046	-1.24
763.489	-6.14
763.931	-4.54
764.374	-1.64
764.816	-2.24
765.258	-7.44
765.701	-7.74
766.143	-2.54
766.585	-3.34
767.028	-2.64
767.47	-3.84
767.912	-0.34
768.354	-5.64
768.796	-8.44
769.238	-3.24
769.681	-3.84
770.123	-7.94
770.565	-6.14
771.007	-6.84
771.449	-2.44
771.891	-3.04
772.333	-7.64
772.774	-3.34
773.216	-8.54
773.658	-2.84
774.1	-3.94
774.542	-2.64
774.984	-0.84
775.425	-4.94
775.867	-7.54
776.309	0.66
776.75	-7.74
777.192	-6.74
777.634	-3.04
778.075	-4.44
778.517	-2.24
778.958	-5.64
779.4	-4.04
779.841	3.96
780.283	-3.74
780.724	-9.14
781.165	-2.44
781.607	-1.94
782.048	-2.14
782.489	-4.44
782.931	-7.34
783.372	0.36
783.813	-3.34
784.254	-7.14
784.695	-1.94
785.136	-2.54
785.578	-5.74
786.019	-6.74
786.46	-9.24
786.901	-4.04
787.342	-12.44
787.783	-6.44
788.224	-8.84
788.664	-3.54
789.105	2.56
789.546	-3.44
789.987	-4.94
790.428	-3.14
790.869	-8.54
791.309	-12.14
791.75	-4.04
792.191	-5.44
792.631	-8.64
793.072	-1.44
793.513	-6.54
793.953	-7.54
794.394	-9.64
794.834	-10.64
795.275	-2.64
795.715	1.46
796.156	-7.74
796.596	-3.74
797.036	-5.54
797.477	-1.64
