节点DUV_HRD08281_00013.txt的数据
Date: Sun Jan 19 20:09:10 CST 2020
User: lab329
Spectrometer: HR+D0828
触发模式: 0
积分时间 (秒): 3.000000E0
Scans to average: 10
启用暗噪声校正: true
启用非线性校正: false
滑动平均宽度: 0
X轴模式: Wavelengths
Number of Pixels in Spectrum: 2048
>>>>>Begin Spectral Data<<<<<
186.281	-69.76
186.758	-69.76
187.234	-69.76
187.71	-73.36
188.187	-66.76
188.663	-2.16
189.139	-9.76
189.615	4.94
190.091	4.84
190.567	14.34
191.043	2.04
191.519	47.24
191.995	9.24
192.471	47.44
192.947	55.64
193.423	4.94
193.899	-7.86
194.375	38.94
194.851	32.54
195.327	3.14
195.803	-4.06
196.278	618.54
196.754	88.14
197.23	40.94
197.706	9.34
198.181	133.24
198.657	16.24
199.133	4.64
199.608	29.04
200.084	5.34
200.559	-7.46
201.035	76.64
201.51	-0.96
201.986	-20.16
202.461	-26.06
202.937	0.74
203.412	73.04
203.887	1.44
204.363	-15.36
204.838	-3.46
205.313	1.74
205.789	-13.66
206.264	5.94
206.739	-9.66
207.214	21.84
207.689	6.34
208.165	5.94
208.64	34.24
209.115	-16.76
209.59	-27.46
210.065	30.74
210.54	-10.66
211.015	-17.86
211.49	-5.36
211.965	20.04
212.44	15.64
212.914	-25.66
213.389	-12.46
213.864	-24.76
214.339	6.14
214.814	-18.56
215.288	-12.76
215.763	19.04
216.238	-27.26
216.712	-16.06
217.187	-17.76
217.662	30.34
218.136	3.64
218.611	-13.86
219.085	44.64
219.56	-19.56
220.034	-14.56
220.509	0.24
220.983	8.54
221.458	-2.96
221.932	-7.86
222.406	-12.56
222.881	-27.16
223.355	-22.86
223.829	-28.46
224.303	-4.26
224.778	-9.96
225.252	-22.26
225.726	-21.86
226.2	-5.76
226.674	67.24
227.148	-5.06
227.622	-24.36
228.096	-19.66
228.57	-13.36
229.044	-15.16
229.518	-7.96
229.992	317.84
230.466	2718.44
230.94	212.74
231.414	24.54
231.888	-18.06
232.361	-24.66
232.835	-12.36
233.309	-25.46
233.783	-11.36
234.256	-23.66
234.73	-27.26
235.204	-6.36
235.677	17.74
236.151	-19.86
236.624	-7.86
237.098	-21.76
237.571	-4.06
238.045	2.24
238.518	-26.76
238.992	-23.76
239.465	-3.96
239.939	11.54
240.412	-2.16
240.885	5.14
241.359	7.14
241.832	-3.46
242.305	-16.06
242.778	-20.36
243.251	2.94
243.725	-21.76
244.198	-12.56
244.671	-34.36
245.144	8.84
245.617	32.64
246.09	-25.16
246.563	7.24
247.036	-17.26
247.509	-8.66
247.982	26.44
248.455	-27.96
248.928	-24.96
249.4	-20.16
249.873	-17.96
250.346	40.44
250.819	-23.76
251.292	-18.86
251.764	-27.16
252.237	1.44
252.71	-25.56
253.182	-23.86
253.655	49.44
254.127	-25.16
254.6	12.04
255.073	1663.24
255.545	132.64
256.018	-5.26
256.49	17.84
256.962	-17.36
257.435	27.54
257.907	-8.16
258.379	9.24
258.852	-12.16
259.324	-15.96
259.796	-3.66
260.269	0.44
260.741	-22.36
261.213	-16.86
261.685	-19.96
262.157	-11.66
262.629	-18.76
263.101	-29.06
263.574	-9.96
264.046	-24.96
264.518	-25.06
264.99	-3.56
265.461	-6.26
265.933	0.84
266.405	-11.66
266.877	-8.76
267.349	-10.06
267.821	18.84
268.293	5.34
268.764	0.54
269.236	-6.46
269.708	31.04
270.18	-22.66
270.651	19.44
271.123	56.64
271.594	-5.06
272.066	-12.16
272.538	193.74
273.009	98.54
273.481	22.64
273.952	14.44
274.423	8.74
274.895	43.84
275.366	98.44
275.838	67.84
276.309	35.74
276.78	33.04
277.252	47.94
277.723	112.14
278.194	115.34
278.665	137.84
279.136	161.94
279.608	246.44
280.079	416.74
280.55	753.44
281.021	1825.94
281.492	4696.64
281.963	8918.74
282.434	12100.44
282.905	12578.14
283.376	10119.94
283.847	6190.34
284.318	3296.14
284.789	1840.14
285.259	1067.44
285.73	679.24
286.201	455.64
286.672	327.04
287.143	269.04
287.613	202.34
288.084	148.54
288.555	113.24
289.025	116.74
289.496	92.14
289.966	67.04
290.437	44.74
290.907	119.44
291.378	93.84
291.848	30.14
292.319	44.64
292.789	30.14
293.26	8.84
293.73	3.34
294.2	-2.46
294.671	-5.06
295.141	41.54
295.611	6.34
296.081	1.94
296.552	41.04
297.022	-0.86
297.492	12.64
297.962	3.04
298.432	10.44
298.902	-12.66
299.372	0.44
299.842	47.64
300.312	-8.06
300.782	-4.66
301.252	-21.46
301.722	-14.36
302.192	22.24
302.662	-17.26
303.132	-17.46
303.602	-12.16
304.071	38.04
304.541	-22.46
305.011	8.34
305.481	-30.96
305.95	-8.76
306.42	-21.16
306.889	-5.36
307.359	-1.86
307.829	-15.46
308.298	-30.66
308.768	-4.06
309.237	-20.96
309.707	-15.26
310.176	-0.16
310.645	-20.66
311.115	-7.36
311.584	-4.16
312.054	-24.26
312.523	-30.96
312.992	-8.46
313.461	-18.26
313.931	-26.76
314.4	17.04
314.869	-18.46
315.338	-14.76
315.807	-23.56
316.276	-34.66
316.745	-30.26
317.214	9.64
317.683	-8.16
318.152	-11.56
318.621	-12.46
319.09	-20.76
319.559	-6.06
320.028	-21.36
320.497	-21.06
320.966	-35.46
321.435	-25.36
321.903	-13.36
322.372	-12.46
322.841	18.44
323.31	-8.56
323.778	-27.86
324.247	-33.66
324.715	-24.76
325.184	50.44
325.653	6.24
326.121	-32.06
326.59	-34.66
327.058	-12.96
327.527	20.14
327.995	-2.26
328.463	-33.76
328.932	36.84
329.4	38.84
329.868	13.44
330.337	3.14
330.805	63.44
331.273	-10.56
331.741	-24.86
332.21	-26.06
332.678	-13.26
333.146	-1.86
333.614	-22.16
334.082	0.64
334.55	-21.76
335.018	-19.26
335.486	-26.26
335.954	-38.86
336.422	19.34
336.89	-20.76
337.358	-19.96
337.826	-25.46
338.294	-3.56
338.762	-20.86
339.229	35.54
339.697	-6.86
340.165	-1.76
340.633	-11.46
341.1	-17.76
341.568	27.04
342.035	21.44
342.503	14.44
342.971	-21.96
343.438	22.44
343.906	-21.16
344.373	3.74
344.841	2.14
345.308	-5.56
345.776	0.34
346.243	-26.86
346.71	-19.56
347.178	-27.66
347.645	49.94
348.112	36.64
348.58	-22.26
349.047	-34.76
349.514	7.04
349.981	-33.66
350.448	24.94
350.915	-26.16
351.383	-25.16
351.85	-23.46
352.317	-12.76
352.784	-15.66
353.251	-4.06
353.718	-22.66
354.185	-30.16
354.651	12.94
355.118	-32.46
355.585	19.04
356.052	32.44
356.519	-15.16
356.986	-26.16
357.452	-5.66
357.919	4.84
358.386	4.24
358.853	-10.06
359.319	-24.96
359.786	-13.36
360.252	22.54
360.719	30.64
361.185	-11.16
361.652	-23.26
362.118	-23.76
362.585	-19.96
363.051	1.04
363.518	-21.76
363.984	-28.06
364.451	8.14
364.917	-31.06
365.383	-20.46
365.849	26.84
366.316	-4.96
366.782	-18.36
367.248	-32.16
367.714	-5.16
368.18	-25.06
368.647	-17.56
369.113	-24.76
369.579	-21.06
370.045	-25.96
370.511	25.24
370.977	-10.96
371.443	-24.76
371.909	-26.36
372.374	-12.56
372.84	-37.96
373.306	-39.76
373.772	12.14
374.238	-28.96
374.704	-31.46
375.169	-30.06
375.635	63.04
376.101	42.74
376.566	-2.06
377.032	21.74
377.498	-22.86
377.963	-18.76
378.429	20.54
378.894	-21.96
379.36	-10.96
379.825	-32.16
380.291	-34.16
380.756	-2.66
381.222	4.94
381.687	-34.66
382.152	-20.46
382.618	6.44
383.083	13.34
383.548	50.64
384.013	-16.66
384.479	-15.06
384.944	-34.06
385.409	-16.96
385.874	-29.46
386.339	23.84
386.804	24.34
387.269	24.74
387.734	-15.86
388.199	-27.96
388.664	-9.46
389.129	-22.76
389.594	-36.86
390.059	-31.76
390.524	-2.56
390.989	-4.66
391.453	2.74
391.918	-33.46
392.383	-24.46
392.848	8.44
393.312	49.14
393.777	-9.56
394.242	-10.86
394.706	28.84
395.171	-6.66
395.635	-14.86
396.1	-2.56
396.565	4.74
397.029	2.54
397.493	-33.06
397.958	4.74
398.422	-27.26
398.887	10.24
399.351	-7.96
399.815	-31.66
400.28	-19.96
400.744	-22.16
401.208	-7.66
401.672	-27.76
402.137	-15.96
402.601	-25.66
403.065	-18.46
403.529	-22.76
403.993	-22.66
404.457	-29.36
404.921	-4.96
405.385	19.44
405.849	-17.16
406.313	4.74
406.777	-15.96
407.241	11.44
407.705	39.34
408.169	1.34
408.632	-23.36
409.096	-8.06
409.56	-25.66
410.024	-4.96
410.487	-13.26
410.951	14.74
411.415	-22.76
411.878	-35.26
412.342	10.24
412.806	-18.66
413.269	4.54
413.733	-31.26
414.196	-23.76
414.66	15.64
415.123	-21.16
415.587	5.44
416.05	-28.36
416.513	8.04
416.977	-12.46
417.44	-19.06
417.903	-31.76
418.366	-33.76
418.83	-11.76
419.293	33.64
419.756	12.24
420.219	-29.36
420.682	-6.36
421.145	-13.26
421.608	-30.76
422.072	-5.16
422.535	-35.46
422.998	-17.36
423.46	-29.56
423.923	-42.76
424.386	-38.86
424.849	7.34
425.312	36.64
425.775	-17.66
426.238	30.64
426.7	10.64
427.163	-25.66
427.626	-23.76
428.089	-7.66
428.551	-29.26
429.014	-21.86
429.477	11.84
429.939	-32.26
430.402	-10.36
430.864	-20.96
431.327	-16.36
431.789	-20.26
432.252	-21.96
432.714	-36.86
433.176	-41.26
433.639	-33.76
434.101	-26.76
434.563	-3.76
435.026	-34.86
435.488	-32.86
435.95	-20.76
436.412	-6.06
436.875	-29.26
437.337	-12.96
437.799	15.24
438.261	19.74
438.723	-13.66
439.185	-34.26
439.647	-31.96
440.109	-17.56
440.571	-20.96
441.033	-12.46
441.495	-12.06
441.957	-27.66
442.419	-13.56
442.881	-18.86
443.342	-30.56
443.804	16.74
444.266	-14.16
444.728	-36.06
445.189	7.14
445.651	-20.96
446.113	-20.66
446.574	-10.66
447.036	-23.66
447.497	-14.76
447.959	-15.96
448.421	-25.96
448.882	-0.76
449.343	-32.46
449.805	-25.66
450.266	-16.16
450.728	-23.76
451.189	-26.56
451.65	-36.86
452.112	29.44
452.573	-15.36
453.034	-27.76
453.495	-27.46
453.957	16.54
454.418	-28.86
454.879	-37.56
455.34	-21.66
455.801	-2.06
456.262	-28.26
456.723	-39.06
457.184	-31.06
457.645	-19.96
458.106	-17.46
458.567	-21.96
459.028	-33.16
459.489	-0.86
459.95	-20.86
460.41	-20.16
460.871	-39.16
461.332	-39.86
461.793	-30.16
462.253	-31.76
462.714	-12.96
463.175	-30.16
463.635	-15.86
464.096	-10.86
464.556	5.34
465.017	-30.46
465.478	-33.26
465.938	-12.06
466.398	-16.86
466.859	-16.46
467.319	29.24
467.78	-27.56
468.24	-27.76
468.7	-15.36
469.161	-39.36
469.621	-17.46
470.081	-20.16
470.541	-34.36
471.002	-42.56
471.462	-18.36
471.922	11.74
472.382	-31.46
472.842	-33.46
473.302	-20.96
473.762	-33.06
474.222	-8.96
474.682	-25.26
475.142	-36.36
475.602	-16.06
476.062	-32.66
476.522	-29.26
476.982	4.84
477.442	-24.06
477.901	-28.56
478.361	38.54
478.821	15.64
479.281	-16.46
479.74	-19.36
480.2	-28.16
480.659	-19.96
481.119	6.94
481.579	-25.86
482.038	-36.86
482.498	32.14
482.957	2.54
483.417	13.74
483.876	-27.86
484.336	-11.56
484.795	-33.96
485.254	-36.66
485.714	-7.76
486.173	1.44
486.632	1.84
487.091	-7.66
487.551	-7.06
488.01	-23.86
488.469	-30.66
488.928	-30.66
489.387	-22.86
489.846	-6.16
490.305	-30.16
490.764	-26.06
491.223	5.04
491.682	-22.06
492.141	14.24
492.6	-31.26
493.059	-32.76
493.518	-27.06
493.977	-19.66
494.436	12.74
494.895	-28.76
495.353	-30.36
495.812	-27.06
496.271	-32.96
496.729	-36.06
497.188	-28.06
497.647	-32.76
498.105	-24.06
498.564	-31.26
499.022	-27.36
499.481	-37.46
499.939	-29.86
500.398	-10.56
500.856	-6.56
501.315	-16.66
501.773	-30.36
502.232	-16.26
502.69	-22.86
503.148	-8.66
503.606	-27.16
504.065	17.94
504.523	-24.06
504.981	-34.06
505.439	-25.36
505.897	-3.36
506.356	-22.76
506.814	24.14
507.272	-12.46
507.73	-18.06
508.188	-15.16
508.646	-35.26
509.104	12.54
509.562	-15.76
510.02	-7.46
510.477	102.44
510.935	-12.76
511.393	-26.66
511.851	-31.56
512.309	-33.56
512.766	-42.66
513.224	-36.16
513.682	-39.06
514.139	-4.26
514.597	-23.16
515.055	-39.76
515.512	-14.66
515.97	-26.76
516.427	5.74
516.885	-24.56
517.342	-25.96
517.8	-31.36
518.257	-9.36
518.714	82.74
519.172	-22.96
519.629	-18.46
520.086	-12.06
520.544	-40.06
521.001	-25.16
521.458	-18.46
521.915	-18.86
522.373	-31.36
522.83	-37.86
523.287	-2.46
523.744	-19.26
524.201	-12.66
524.658	0.14
525.115	-36.96
525.572	-24.16
526.029	-32.86
526.486	-20.16
526.943	6.14
527.4	1.14
527.857	-22.06
528.313	-37.76
528.77	-21.76
529.227	0.44
529.684	-26.26
530.14	-32.36
530.597	-32.36
531.054	-29.76
531.51	-35.66
531.967	-22.66
532.423	-32.36
532.88	-36.66
533.337	-31.26
533.793	-26.76
534.25	-25.36
534.706	-46.26
535.162	-38.96
535.619	-36.56
536.075	-31.96
536.531	-34.96
536.988	-7.76
537.444	-16.86
537.9	-19.46
538.356	-34.06
538.813	-20.16
539.269	50.24
539.725	-1.66
540.181	-0.56
540.637	-20.96
541.093	-25.26
541.549	-15.86
542.005	8.94
542.461	-37.06
542.917	48.24
543.373	-5.86
543.829	-23.86
544.285	-19.66
544.741	-29.46
545.197	40.34
545.652	-32.96
546.108	2.94
546.564	-21.16
547.02	-11.16
547.475	-37.46
547.931	-36.06
548.387	-28.76
548.842	-19.36
549.298	19.84
549.753	-12.96
550.209	42.74
550.664	-27.16
551.12	-20.46
551.575	-18.46
552.031	22.14
552.486	-37.86
552.941	-29.66
553.397	604.64
553.852	78.74
554.307	16.24
554.762	-7.76
555.218	-25.26
555.673	4.94
556.128	-20.76
556.583	-30.46
557.038	-16.06
557.493	-30.86
557.948	-30.66
558.403	-17.56
558.858	-45.66
559.313	-38.46
559.768	11.54
560.223	-42.16
560.678	36.94
561.133	-32.86
561.588	-16.56
562.043	-27.36
562.497	-26.46
562.952	-21.76
563.407	-40.96
563.862	33.64
564.316	-12.86
564.771	-32.96
565.226	-19.66
565.68	-34.96
566.135	-35.66
566.589	-38.06
567.044	-39.46
567.498	-21.66
567.953	-14.76
568.407	-28.86
568.862	-27.16
569.316	-5.96
569.77	1.24
570.225	-37.76
570.679	-18.56
571.133	-24.96
571.587	-20.46
572.042	-1.96
572.496	13.34
572.95	-28.96
573.404	-17.76
573.858	-29.36
574.312	-45.06
574.766	-31.96
575.22	-19.16
575.674	-27.36
576.128	-40.06
576.582	-38.46
577.036	-25.56
577.49	-47.06
577.944	-28.26
578.398	13.84
578.852	-17.36
579.305	-19.06
579.759	-17.16
580.213	-28.76
580.666	-20.66
581.12	-43.96
581.574	-27.46
582.027	-23.66
582.481	-4.46
582.935	-38.16
583.388	4.44
583.842	-17.76
584.295	-39.96
584.748	-17.86
585.202	0.34
585.655	8.94
586.109	-21.46
586.562	64.24
587.015	16.34
587.469	-21.66
587.922	-38.56
588.375	-34.26
588.828	-6.66
589.281	-4.26
589.735	-32.86
590.188	-35.06
590.641	-31.76
591.094	-7.96
591.547	-33.86
592	-25.16
592.453	-24.46
592.906	-30.66
593.359	-32.96
593.812	-44.46
594.265	43.74
594.717	20.74
595.17	0.44
595.623	-21.96
596.076	-47.46
596.529	-15.86
596.981	-28.06
597.434	-15.16
597.887	-26.76
598.339	-38.96
598.792	-38.76
599.245	-25.56
599.697	-26.96
600.15	-9.76
600.602	9.84
601.055	-23.96
601.507	-23.36
601.959	-10.26
602.412	-29.56
602.864	-22.26
603.316	-21.36
603.769	-33.96
604.221	42.24
604.673	-2.46
605.126	-18.76
605.578	-18.26
606.03	-20.06
606.482	-41.86
606.934	-24.46
607.386	-39.56
607.838	-39.66
608.29	-23.16
608.742	5.54
609.194	-21.36
609.646	-17.16
610.098	-19.66
610.55	-25.66
611.002	-26.76
611.454	-32.06
611.906	-40.06
612.357	-26.56
612.809	0.54
613.261	-33.46
613.713	-7.66
614.164	-35.26
614.616	-14.46
615.068	23.84
615.519	-25.16
615.971	-32.36
616.422	-4.36
616.874	-11.66
617.325	-29.56
617.777	-28.36
618.228	-43.86
618.68	18.64
619.131	-16.76
619.582	-35.96
620.034	-10.86
620.485	-18.46
620.936	-43.76
621.387	-38.96
621.839	-42.26
622.29	22.44
622.741	20.04
623.192	-0.36
623.643	14.24
624.094	-25.76
624.545	-27.66
624.996	-42.26
625.447	8.04
625.898	25.54
626.349	-28.96
626.8	-39.86
627.251	-28.46
627.702	-30.06
628.153	-5.46
628.604	-36.76
629.054	-37.46
629.505	12.24
629.956	-37.16
630.406	4.34
630.857	18.64
631.308	-27.06
631.758	-11.06
632.209	-13.26
632.66	-27.36
633.11	-0.66
633.561	-40.76
634.011	20.84
634.461	-25.66
634.912	-4.96
635.362	-4.76
635.813	-34.96
636.263	-42.86
636.713	5.24
637.164	-37.76
637.614	-38.66
638.064	-41.66
638.514	-42.06
638.964	-14.96
639.415	1.54
639.865	-25.96
640.315	-8.86
640.765	-26.16
641.215	-16.16
641.665	-12.16
642.115	-15.76
642.565	59.04
643.015	-12.86
643.465	-18.76
643.915	-27.26
644.364	-16.46
644.814	-20.86
645.264	-9.66
645.714	-1.26
646.163	-20.86
646.613	-24.06
647.063	7.64
647.513	6.54
647.962	-23.16
648.412	-20.66
648.861	-8.16
649.311	-39.06
649.76	-3.96
650.21	-34.76
650.659	10.44
651.109	-3.66
651.558	-23.66
652.008	-15.66
652.457	-15.16
652.906	-22.26
653.356	7.34
653.805	-15.06
654.254	-6.56
654.703	-37.66
655.152	-30.06
655.602	-23.16
656.051	-22.86
656.5	-34.96
656.949	-44.16
657.398	-9.56
657.847	-38.56
658.296	-39.66
658.745	-29.26
659.194	-4.96
659.643	-10.86
660.092	-29.56
660.541	-42.56
660.989	-15.16
661.438	-11.26
661.887	1.94
662.336	-21.06
662.784	-40.26
663.233	5.64
663.682	12.84
664.13	-18.46
664.579	-26.36
665.028	-31.16
665.476	-5.86
665.925	-19.96
666.373	-11.66
666.822	-32.06
667.27	-35.36
667.719	-34.96
668.167	-6.66
668.615	-20.46
669.064	-35.16
669.512	-31.96
669.96	13.34
670.408	-18.96
670.857	-13.86
671.305	12.34
671.753	-34.06
672.201	-20.96
672.649	-12.16
673.097	11.34
673.545	-26.56
673.993	10.74
674.441	-36.96
674.889	-31.26
675.337	-26.86
675.785	47.54
676.233	-20.76
676.681	0.04
677.129	-26.06
677.577	-21.26
678.025	-41.66
678.472	-17.96
678.92	-32.56
679.368	-15.66
679.815	-39.96
680.263	-40.36
680.711	-30.96
681.158	-38.76
681.606	12.84
682.053	-21.16
682.501	-20.96
682.948	0.44
683.396	12.04
683.843	46.34
684.291	-10.46
684.738	43.54
685.185	16.54
685.633	118.04
686.08	9.44
686.527	-30.56
686.974	-35.76
687.422	-23.06
687.869	-2.56
688.316	-18.36
688.763	-29.36
689.21	-31.36
689.657	-21.76
690.104	-22.86
690.551	26.44
690.998	22.14
691.445	-22.76
691.892	24.14
692.339	-19.86
692.786	7.44
693.233	-24.36
693.68	11.54
694.127	40.54
694.573	-21.96
695.02	-32.66
695.467	-27.86
695.913	9.44
696.36	25.04
696.807	55.44
697.253	23.74
697.7	-2.76
698.146	-31.26
698.593	-30.46
699.039	26.14
699.486	23.74
699.932	-36.06
700.379	4.84
700.825	41.84
701.272	-12.16
701.718	43.54
702.164	44.54
702.61	24.04
703.057	-13.26
703.503	4.54
703.949	-26.26
704.395	4.54
704.841	-4.36
705.287	8.34
705.734	-10.66
706.18	-27.96
706.626	28.94
707.072	10.44
707.518	10.54
707.964	-12.16
708.409	-30.06
708.855	-34.36
709.301	-8.46
709.747	15.54
710.193	-15.66
710.639	-5.76
711.084	55.24
711.53	26.94
711.976	-29.56
712.421	23.94
712.867	-27.66
713.313	3.04
713.758	-40.46
714.204	-22.16
714.649	13.64
715.095	37.84
715.54	-4.96
715.986	-35.96
716.431	-34.76
716.877	-35.76
717.322	-25.36
717.767	62.34
718.213	-26.96
718.658	-19.86
719.103	-1.96
719.548	18.54
719.994	-16.06
720.439	-20.96
720.884	-30.26
721.329	-22.66
721.774	4.04
722.219	-33.46
722.664	8.24
723.109	-28.66
723.554	-24.66
723.999	-18.86
724.444	52.34
724.889	-4.46
725.334	5.64
725.779	-32.16
726.223	-31.86
726.668	-9.96
727.113	-29.06
727.558	-17.46
728.002	-26.96
728.447	-13.36
728.892	33.04
729.336	-16.56
729.781	-7.46
730.225	-14.76
730.67	-18.96
731.114	-22.36
731.559	-5.66
732.003	55.74
732.448	-6.36
732.892	-8.06
733.337	-30.76
733.781	-20.96
734.225	9.54
734.67	58.24
735.114	16.24
735.558	-18.96
736.002	7.74
736.446	-27.96
736.891	33.74
737.335	-5.26
737.779	0.54
738.223	-29.46
738.667	-40.36
739.111	-21.56
739.555	71.34
739.999	28.94
740.443	21.84
740.887	-23.46
741.33	-27.16
741.774	2.34
742.218	-10.86
742.662	-34.56
743.106	-33.46
743.549	-15.06
743.993	43.44
744.437	-13.96
744.88	-28.56
745.324	-30.06
745.768	-7.36
746.211	-7.46
746.655	-13.56
747.098	5.04
747.542	61.24
747.985	22.94
748.429	-38.16
748.872	-30.96
749.315	7.74
749.759	24.54
750.202	9.94
750.645	-29.96
751.089	-19.96
751.532	-46.66
751.975	-27.36
752.418	1.54
752.861	10.94
753.305	11.34
753.748	-40.46
754.191	-13.36
754.634	-0.76
755.077	13.14
755.52	1.64
755.963	-10.76
756.406	-17.66
756.849	-31.96
757.291	47.94
757.734	-24.76
758.177	-34.96
758.62	-17.16
759.063	6.74
759.505	-6.66
759.948	-9.96
760.391	-11.36
760.833	-16.76
761.276	-15.36
761.719	-29.36
762.161	15.14
762.604	8.54
763.046	-25.96
763.489	-9.76
763.931	14.64
764.374	-19.36
764.816	-17.96
765.258	-24.96
765.701	-17.26
766.143	-32.36
766.585	66.34
767.028	-14.96
767.47	-21.96
767.912	-16.86
768.354	-23.26
768.796	-7.26
769.238	32.74
769.681	-28.76
770.123	-16.26
770.565	32.44
771.007	-8.36
771.449	-27.46
771.891	4.84
772.333	-7.96
772.774	-40.06
