节点DUV_HRD08281_00003.txt的数据
Date: Sun Jan 19 19:57:31 CST 2020
User: lab329
Spectrometer: HR+D0828
触发模式: 0
积分时间 (秒): 5.000000E-2
Scans to average: 10
启用暗噪声校正: true
启用非线性校正: false
滑动平均宽度: 0
X轴模式: Wavelengths
Number of Pixels in Spectrum: 2048
>>>>>Begin Spectral Data<<<<<
186.281	-3.32
186.758	-3.32
187.234	-3.32
187.71	-4.32
188.187	1.88
188.663	-3.12
189.139	0.88
189.615	0.98
190.091	1.78
190.567	-0.02
191.043	-1.62
191.519	2.58
191.995	-1.22
192.471	1.18
192.947	1.18
193.423	-3.42
193.899	1.98
194.375	4.58
194.851	-0.12
195.327	0.68
195.803	0.88
196.278	11.08
196.754	-3.02
197.23	0.58
197.706	1.88
198.181	-1.32
198.657	-0.02
199.133	-4.92
199.608	2.48
200.084	2.98
200.559	1.08
201.035	1.18
201.51	-0.42
201.986	-5.82
202.461	-5.42
202.937	-7.02
203.412	0.08
203.887	-3.12
204.363	-5.12
204.838	-0.92
205.313	-1.92
205.789	-6.02
206.264	1.18
206.739	-1.82
207.214	-0.62
207.689	-0.92
208.165	-4.82
208.64	1.58
209.115	1.18
209.59	-3.22
210.065	-2.02
210.54	-3.62
211.015	0.18
211.49	-3.82
211.965	-5.62
212.44	1.58
212.914	0.28
213.389	-1.82
213.864	-1.32
214.339	-0.92
214.814	-2.02
215.288	-6.22
215.763	-1.62
216.238	-4.12
216.712	0.98
217.187	-0.42
217.662	2.18
218.136	1.48
218.611	-4.32
219.085	-8.72
219.56	-6.62
220.034	-6.62
220.509	-1.52
220.983	-6.62
221.458	-1.62
221.932	1.08
222.406	-6.12
222.881	-2.02
223.355	-2.62
223.829	-1.12
224.303	-1.22
224.778	2.68
225.252	0.48
225.726	-1.22
226.2	1.28
226.674	-0.42
227.148	-1.32
227.622	-7.52
228.096	-0.52
228.57	-5.82
229.044	-3.92
229.518	-1.52
229.992	1.78
230.466	52.28
230.94	4.98
231.414	-5.32
231.888	-7.92
232.361	-5.72
232.835	-3.92
233.309	1.98
233.783	-9.92
234.256	5.78
234.73	-0.12
235.204	-1.02
235.677	-0.92
236.151	-1.92
236.624	-1.22
237.098	-1.02
237.571	-2.62
238.045	4.48
238.518	-1.02
238.992	-2.52
239.465	1.28
239.939	1.58
240.412	-0.82
240.885	-0.92
241.359	-4.82
241.832	1.68
242.305	3.38
242.778	-1.72
243.251	0.28
243.725	-3.32
244.198	-2.32
244.671	-1.22
245.144	-0.72
245.617	-3.92
246.09	-4.62
246.563	-3.02
247.036	-1.22
247.509	-5.22
247.982	-0.12
248.455	-0.62
248.928	-2.72
249.4	0.68
249.873	0.78
250.346	1.68
250.819	-3.12
251.292	0.68
251.764	-6.02
252.237	-0.72
252.71	-2.62
253.182	-3.12
253.655	-1.82
254.127	-2.22
254.6	5.48
255.073	28.98
255.545	0.68
256.018	-2.62
256.49	-1.42
256.962	-4.32
257.435	-0.02
257.907	-4.62
258.379	2.78
258.852	-2.82
259.324	1.38
259.796	3.18
260.269	-0.32
260.741	0.48
261.213	-2.92
261.685	-1.72
262.157	2.38
262.629	0.18
263.101	-3.12
263.574	1.38
264.046	-2.42
264.518	-3.42
264.99	0.68
265.461	-2.32
265.933	0.48
266.405	1.68
266.877	-4.02
267.349	4.78
267.821	0.58
268.293	-2.82
268.764	2.48
269.236	-2.52
269.708	1.88
270.18	1.28
270.651	-1.62
271.123	0.38
271.594	0.98
272.066	-1.82
272.538	1.78
273.009	-1.92
273.481	-4.82
273.952	-2.32
274.423	-2.22
274.895	2.18
275.366	1.08
275.838	0.98
276.309	-0.82
276.78	-1.72
277.252	0.28
277.723	-1.72
278.194	0.38
278.665	5.58
279.136	-2.32
279.608	-8.72
280.079	2.28
280.55	1.18
281.021	-0.32
281.492	-1.22
281.963	-2.02
282.434	-1.12
282.905	-1.92
283.376	-3.42
283.847	3.18
284.318	4.58
284.789	1.48
285.259	2.98
285.73	-3.52
286.201	1.98
286.672	1.78
287.143	-3.42
287.613	0.48
288.084	3.68
288.555	-4.52
289.025	2.08
289.496	0.68
289.966	0.08
290.437	-1.42
290.907	-2.92
291.378	-2.02
291.848	4.18
292.319	2.68
292.789	-2.02
293.26	-0.32
293.73	3.48
294.2	0.08
294.671	2.28
295.141	2.08
295.611	0.08
296.081	0.38
296.552	6.18
297.022	-2.42
297.492	-0.82
297.962	-2.12
298.432	-2.12
298.902	-0.72
299.372	-6.02
299.842	-4.02
300.312	-0.22
300.782	0.98
301.252	-3.22
301.722	-0.32
302.192	-0.22
302.662	2.98
303.132	-2.82
303.602	-2.82
304.071	1.88
304.541	-1.52
305.011	-3.22
305.481	2.38
305.95	3.28
306.42	1.08
306.889	1.18
307.359	-1.42
307.829	-5.12
308.298	-0.12
308.768	-0.62
309.237	-1.62
309.707	-1.52
310.176	1.88
310.645	0.88
311.115	0.98
311.584	1.58
312.054	1.78
312.523	0.58
312.992	4.18
313.461	3.58
313.931	2.68
314.4	4.68
314.869	-1.72
315.338	1.28
315.807	2.88
316.276	2.68
316.745	4.28
317.214	3.68
317.683	-0.02
318.152	4.28
318.621	-2.12
319.09	1.88
319.559	6.78
320.028	3.68
320.497	9.08
320.966	4.18
321.435	3.88
321.903	6.98
322.372	5.48
322.841	9.68
323.31	9.58
323.778	9.78
324.247	11.18
324.715	12.88
325.184	10.28
325.653	16.28
326.121	14.98
326.59	18.88
327.058	26.68
327.527	28.68
327.995	53.28
328.463	89.88
328.932	178.48
329.4	377.78
329.868	838.68
330.337	1808.28
330.805	3528.78
331.273	6339.98
331.741	10266.08
332.21	13318.28
332.678	14626.88
333.146	14962.98
333.614	14197.48
334.082	11738.08
334.55	8608.98
335.018	5136.78
335.486	2673.68
335.954	1326.58
336.422	631.78
336.89	315.38
337.358	170.28
337.826	93.28
338.294	56.78
338.762	42.08
339.229	35.18
339.697	22.38
340.165	19.58
340.633	18.38
341.1	17.48
341.568	15.48
342.035	11.78
342.503	6.08
342.971	7.28
343.438	12.78
343.906	12.58
344.373	14.48
344.841	8.78
345.308	7.78
345.776	8.48
346.243	12.88
346.71	7.88
347.178	9.98
347.645	8.08
348.112	8.68
348.58	6.88
349.047	7.78
349.514	5.28
349.981	3.08
350.448	4.08
350.915	7.18
351.383	2.08
351.85	5.78
352.317	3.78
352.784	2.68
353.251	0.98
353.718	-1.72
354.185	0.88
354.651	0.28
355.118	-1.62
355.585	3.18
356.052	-1.02
356.519	-2.12
356.986	-1.52
357.452	0.78
357.919	-1.72
358.386	2.48
358.853	-4.02
359.319	-6.32
359.786	-0.22
360.252	0.48
360.719	2.28
361.185	-0.42
361.652	-4.52
362.118	0.38
362.585	3.28
363.051	-2.92
363.518	-0.22
363.984	-1.62
364.451	5.78
364.917	-1.12
365.383	-4.42
365.849	4.78
366.316	0.58
366.782	-2.92
367.248	0.88
367.714	-1.92
368.18	-1.22
368.647	-1.92
369.113	-5.62
369.579	1.38
370.045	0.38
370.511	-4.82
370.977	2.78
371.443	-1.42
371.909	-1.72
372.374	1.38
372.84	-0.72
373.306	-4.02
373.772	-5.62
374.238	-1.62
374.704	3.58
375.169	0.18
375.635	-0.32
376.101	3.58
376.566	-3.42
377.032	2.38
377.498	1.28
377.963	-3.02
378.429	5.68
378.894	-4.32
379.36	-5.12
379.825	-0.22
380.291	-5.22
380.756	2.58
381.222	-0.72
381.687	-1.92
382.152	-4.02
382.618	-2.52
383.083	-1.62
383.548	-0.32
384.013	-2.32
384.479	-2.72
384.944	-2.82
385.409	-2.62
385.874	1.88
386.339	1.88
386.804	-4.42
387.269	2.68
387.734	-0.62
388.199	-1.62
388.664	-0.42
389.129	-1.02
389.594	-1.32
390.059	-6.12
390.524	-4.62
390.989	1.28
391.453	1.38
391.918	1.98
392.383	0.48
392.848	-2.22
393.312	-0.02
393.777	-0.12
394.242	-2.72
394.706	0.38
395.171	1.18
395.635	-3.32
396.1	-1.12
396.565	-4.12
397.029	-0.22
397.493	-2.52
397.958	0.28
398.422	-0.32
398.887	0.08
399.351	-0.12
399.815	-0.52
400.28	-3.32
400.744	1.98
401.208	-5.92
401.672	-0.52
402.137	0.18
402.601	-1.12
403.065	2.08
403.529	2.78
403.993	-3.22
404.457	-4.12
404.921	-2.02
405.385	0.18
405.849	2.28
406.313	-5.92
406.777	4.48
407.241	3.28
407.705	-1.62
408.169	-2.22
408.632	-1.92
409.096	0.58
409.56	-1.32
410.024	-0.82
410.487	-4.72
410.951	4.28
411.415	-1.62
411.878	-6.52
412.342	0.88
412.806	-1.52
413.269	0.68
413.733	-1.12
414.196	-5.42
414.66	3.98
415.123	2.68
415.587	-4.62
416.05	-0.72
416.513	-2.52
416.977	-2.62
417.44	-2.62
417.903	-2.12
418.366	2.18
418.83	4.58
419.293	0.88
419.756	-1.82
420.219	-1.22
420.682	-1.92
421.145	-2.22
421.608	-2.22
422.072	2.38
422.535	-5.72
422.998	-3.32
423.46	1.78
423.923	-0.52
424.386	-7.82
424.849	0.28
425.312	-6.02
425.775	-4.92
426.238	0.48
426.7	-3.62
427.163	1.38
427.626	-2.72
428.089	-1.02
428.551	-4.32
429.014	2.38
429.477	2.38
429.939	-3.02
430.402	-1.22
430.864	1.28
431.327	-1.12
431.789	-4.12
432.252	-4.32
432.714	-6.42
433.176	-2.62
433.639	3.28
434.101	-0.32
434.563	1.28
435.026	2.98
435.488	-0.92
435.95	-1.22
436.412	-1.12
436.875	0.28
437.337	-0.22
437.799	-4.52
438.261	4.28
438.723	-4.22
439.185	-6.52
439.647	-0.12
440.109	-1.82
440.571	-2.72
441.033	-0.82
441.495	-0.52
441.957	1.68
442.419	0.08
442.881	-3.02
443.342	-2.32
443.804	-5.62
444.266	-3.62
444.728	-5.72
445.189	1.48
445.651	-0.62
446.113	-3.02
446.574	-6.72
447.036	-3.12
447.497	-5.12
447.959	1.78
448.421	-2.52
448.882	-4.12
449.343	2.48
449.805	3.18
450.266	-5.12
450.728	3.38
451.189	-2.22
451.65	-5.02
452.112	-2.42
452.573	-7.22
453.034	-6.82
453.495	0.68
453.957	-2.22
454.418	-3.12
454.879	-5.92
455.34	-4.12
455.801	2.28
456.262	-4.62
456.723	-1.82
457.184	-1.72
457.645	-5.12
458.106	-1.32
458.567	-4.02
459.028	-2.72
459.489	-4.02
459.95	-4.52
460.41	-6.52
460.871	-6.12
461.332	-1.02
461.793	-2.22
462.253	-6.72
462.714	-6.62
463.175	-3.12
463.635	-6.22
464.096	-3.92
464.556	-0.22
465.017	-2.62
465.478	-4.92
465.938	-1.72
466.398	-7.22
466.859	-4.02
467.319	0.08
467.78	-5.22
468.24	0.68
468.7	-1.12
469.161	-3.12
469.621	-2.72
470.081	-3.52
470.541	0.28
471.002	-4.22
471.462	-4.72
471.922	-4.82
472.382	-3.92
472.842	-6.72
473.302	-0.82
473.762	-2.82
474.222	-4.12
474.682	-4.22
475.142	-2.52
475.602	0.98
476.062	0.08
476.522	0.38
476.982	-0.62
477.442	-2.52
477.901	-3.12
478.361	-1.52
478.821	-7.22
479.281	-3.32
479.74	-2.32
480.2	-4.52
480.659	-3.02
481.119	-2.12
481.579	-5.32
482.038	-3.42
482.498	-7.52
482.957	-2.72
483.417	-1.02
483.876	1.48
484.336	-3.22
484.795	-4.32
485.254	-7.02
485.714	-8.12
486.173	-4.22
486.632	-4.12
487.091	-3.92
487.551	-4.72
488.01	-1.72
488.469	-2.12
488.928	-7.02
489.387	-2.02
489.846	-2.72
490.305	-5.82
490.764	-8.02
491.223	-1.12
491.682	1.68
492.141	-2.32
492.6	-3.72
493.059	-2.82
493.518	-5.82
493.977	-4.42
494.436	-5.22
494.895	-7.72
495.353	-1.12
495.812	-3.02
496.271	-11.12
496.729	-3.32
497.188	-3.52
497.647	-6.12
498.105	-4.72
498.564	-0.72
499.022	-2.62
499.481	-2.52
499.939	-5.32
500.398	0.28
500.856	-1.72
501.315	-3.32
501.773	-0.22
502.232	-5.42
502.69	-4.62
503.148	-5.62
503.606	-5.62
504.065	-3.42
504.523	-3.12
504.981	-0.42
505.439	-4.42
505.897	-4.82
506.356	-4.02
506.814	-5.22
507.272	-0.32
507.73	-2.22
508.188	-0.42
508.646	-6.12
509.104	-0.22
509.562	-8.42
510.02	-5.92
510.477	0.48
510.935	-5.42
511.393	-1.12
511.851	-4.32
512.309	-8.32
512.766	-6.32
513.224	-0.62
513.682	-4.82
514.139	-4.02
514.597	-3.52
515.055	-7.62
515.512	-0.62
515.97	-9.52
516.427	-6.12
516.885	-2.52
517.342	-7.32
517.8	-6.22
518.257	-4.92
518.714	-3.52
519.172	0.38
519.629	-6.32
520.086	-8.62
520.544	-5.02
521.001	-2.22
521.458	-1.92
521.915	-1.52
522.373	-6.12
522.83	-6.72
523.287	-3.82
523.744	-3.52
524.201	-4.52
524.658	-5.02
525.115	0.48
525.572	-5.62
526.029	-6.62
526.486	-4.52
526.943	-7.62
527.4	-5.22
527.857	-2.22
528.313	-5.42
528.77	-2.92
529.227	-6.02
529.684	-2.82
530.14	-4.82
530.597	-4.42
531.054	-4.92
531.51	-5.02
531.967	-8.62
532.423	-5.02
532.88	-3.52
533.337	-3.62
533.793	-3.62
534.25	-1.52
534.706	-3.62
535.162	-5.02
535.619	-3.12
536.075	-3.62
536.531	-7.82
536.988	-8.02
537.444	-1.82
537.9	-1.22
538.356	-2.72
538.813	-3.12
539.269	-1.72
539.725	-6.42
540.181	-4.02
540.637	-6.12
541.093	2.68
541.549	-6.72
542.005	-7.42
542.461	-7.22
542.917	-3.42
543.373	-0.92
543.829	-6.92
544.285	-10.62
544.741	-4.62
545.197	3.08
545.652	-4.82
546.108	-5.02
546.564	-4.72
547.02	-5.92
547.475	-2.92
547.931	-3.42
548.387	1.38
548.842	-4.72
549.298	-2.82
549.753	-5.82
550.209	-1.52
550.664	-3.82
551.12	-4.12
551.575	-5.12
552.031	-7.02
552.486	-4.32
552.941	-6.62
553.397	8.58
553.852	-5.32
554.307	-5.72
554.762	-4.32
555.218	-12.62
555.673	-0.72
556.128	3.68
556.583	-5.52
557.038	-5.82
557.493	-5.82
557.948	-9.32
558.403	-10.62
558.858	-6.62
559.313	-8.32
559.768	-2.52
560.223	-2.42
560.678	-3.32
561.133	-5.22
561.588	-7.22
562.043	-1.82
562.497	-6.52
562.952	-2.32
563.407	-8.32
563.862	-6.22
564.316	-3.72
564.771	-8.32
565.226	-6.82
565.68	-3.22
566.135	0.48
566.589	-9.32
567.044	-8.82
567.498	-4.22
567.953	0.88
568.407	-7.02
568.862	-7.02
569.316	-3.32
569.77	-3.02
570.225	-6.72
570.679	-3.52
571.133	-10.32
571.587	-4.12
572.042	-2.82
572.496	-5.92
572.95	-6.92
573.404	-5.32
573.858	-11.32
574.312	-5.92
574.766	-6.02
575.22	-6.92
575.674	-9.52
576.128	-9.72
576.582	-3.62
577.036	-7.92
577.49	-10.22
577.944	-11.52
578.398	-5.32
578.852	-5.62
579.305	-6.52
579.759	-10.32
580.213	-1.22
580.666	-10.32
581.12	-8.62
581.574	0.38
582.027	-6.62
582.481	-7.92
582.935	-5.82
583.388	-5.42
583.842	-4.12
584.295	-7.82
584.748	-8.52
585.202	-8.92
585.655	-3.62
586.109	-6.12
586.562	-1.02
587.015	-10.92
587.469	-5.62
587.922	-6.32
588.375	-6.62
588.828	-3.72
589.281	-2.32
589.735	-4.62
590.188	-1.52
590.641	-2.92
591.094	-6.22
591.547	-6.72
592	-4.12
592.453	-4.72
592.906	-8.82
593.359	-6.42
593.812	-3.92
594.265	-6.82
594.717	-6.02
595.17	-7.22
595.623	-13.62
596.076	-4.52
596.529	-2.82
596.981	-7.02
597.434	-3.82
597.887	-4.82
598.339	-4.32
598.792	-4.82
599.245	-3.92
599.697	-1.92
600.15	-7.72
600.602	-7.52
601.055	-3.52
601.507	-8.02
601.959	-8.22
602.412	-1.92
602.864	-6.92
603.316	-4.12
603.769	-3.72
604.221	-5.62
604.673	-2.02
605.126	-2.32
605.578	-7.72
606.03	-3.82
606.482	-7.32
606.934	-4.32
607.386	-1.02
607.838	-0.72
608.29	5.38
608.742	1.58
609.194	-3.82
609.646	-2.12
610.098	-6.12
610.55	-4.62
611.002	-2.42
611.454	-3.32
611.906	-7.82
612.357	-3.02
612.809	-7.72
613.261	-8.92
613.713	-8.32
614.164	-3.42
614.616	-4.22
615.068	-5.52
615.519	-1.82
615.971	-7.72
616.422	-12.72
616.874	-5.22
617.325	-2.62
617.777	-5.72
618.228	-9.92
618.68	-10.22
619.131	-3.82
619.582	-7.52
620.034	-11.62
620.485	-2.12
620.936	-7.22
621.387	-5.42
621.839	-4.02
622.29	-4.12
622.741	-5.42
623.192	-9.82
623.643	-6.52
624.094	-8.32
624.545	-6.02
624.996	-7.82
625.447	-3.32
625.898	-7.22
626.349	-3.22
626.8	-3.62
627.251	-9.32
627.702	-1.02
628.153	-8.42
628.604	-5.22
629.054	-7.42
629.505	-5.12
629.956	-2.02
630.406	-2.42
630.857	-6.92
631.308	-4.82
631.758	-8.62
632.209	-3.82
632.66	-6.12
633.11	-4.82
633.561	-10.02
634.011	-0.82
634.461	-7.82
634.912	-1.12
635.362	-5.12
635.813	-9.22
636.263	-4.62
636.713	-7.92
637.164	-10.12
637.614	-5.02
638.064	-11.42
638.514	-3.82
638.964	-3.22
639.415	-5.02
639.865	-9.12
640.315	-3.82
640.765	-11.82
641.215	-5.02
641.665	-4.82
642.115	-7.22
642.565	-4.32
643.015	-8.72
643.465	-3.52
643.915	-2.82
644.364	-5.82
644.814	-2.32
645.264	-4.32
645.714	-5.52
646.163	-5.72
646.613	-6.22
647.063	-3.12
647.513	-2.22
647.962	-6.72
648.412	0.98
648.861	-2.22
649.311	0.38
649.76	-3.72
650.21	-4.02
650.659	-4.12
651.109	-5.12
651.558	-6.72
652.008	-2.62
652.457	-2.12
652.906	-5.72
653.356	-6.02
653.805	-3.92
654.254	-3.32
654.703	-2.02
655.152	-4.62
655.602	-4.72
656.051	-2.72
656.5	-4.42
656.949	-7.72
657.398	-3.82
657.847	-1.82
658.296	-7.12
658.745	-6.92
659.194	-0.52
659.643	-3.22
660.092	-8.12
660.541	-1.52
660.989	-10.42
661.438	-6.02
661.887	-4.42
662.336	-4.92
662.784	-6.12
663.233	-5.12
663.682	-4.52
664.13	-0.92
664.579	0.88
665.028	-6.92
665.476	-0.62
665.925	-4.72
666.373	-6.52
666.822	-8.42
667.27	-5.42
667.719	-1.52
668.167	-5.02
668.615	-8.62
669.064	-6.12
669.512	-7.12
669.96	-6.42
670.408	-6.22
670.857	-9.12
671.305	0.28
671.753	-7.52
672.201	-6.42
672.649	-8.72
673.097	-6.22
673.545	-3.32
673.993	-3.32
674.441	-6.82
674.889	-0.22
675.337	-4.62
675.785	-6.22
676.233	-7.42
676.681	-6.02
677.129	-2.92
677.577	-8.62
678.025	-7.72
678.472	-5.62
678.92	-3.32
679.368	-7.12
679.815	-2.62
680.263	-4.52
680.711	-7.52
681.158	-2.92
681.606	-7.22
682.053	-3.32
682.501	-4.32
682.948	-7.42
683.396	-3.12
683.843	-5.82
684.291	-10.12
684.738	-3.92
685.185	-9.72
685.633	-4.92
686.08	-6.32
686.527	-9.22
686.974	-8.62
687.422	-4.32
687.869	-5.82
688.316	-6.22
688.763	-6.82
689.21	-7.22
689.657	-12.42
690.104	-7.62
690.551	-4.52
690.998	0.28
691.445	-7.02
691.892	-5.52
692.339	-3.02
692.786	-5.02
693.233	-2.52
693.68	-4.72
694.127	-2.02
694.573	-3.42
695.02	-5.82
695.467	-0.52
695.913	-2.62
696.36	-3.12
696.807	1.38
697.253	-5.42
697.7	-7.82
698.146	-3.92
698.593	-4.52
699.039	-0.12
699.486	-4.12
699.932	-5.72
700.379	-5.22
700.825	-3.42
701.272	-5.12
701.718	-3.42
702.164	-2.72
702.61	2.68
703.057	-9.32
703.503	-7.52
703.949	-3.92
704.395	-8.02
704.841	-0.42
705.287	-3.42
705.734	-6.82
706.18	-3.22
706.626	-2.52
707.072	-6.12
707.518	-2.32
707.964	-5.02
708.409	-11.72
708.855	-3.42
709.301	-2.72
709.747	-5.22
710.193	-3.02
710.639	-6.22
711.084	-1.32
711.53	-4.92
711.976	-8.12
712.421	-4.12
712.867	-3.82
713.313	-6.72
713.758	-8.22
714.204	-5.72
714.649	-3.82
715.095	-2.62
715.54	-4.02
715.986	-2.72
716.431	-7.62
716.877	-6.92
717.322	-7.82
717.767	-4.92
718.213	-3.52
718.658	-3.82
719.103	-6.62
719.548	1.48
719.994	-5.02
720.439	-1.82
720.884	-3.22
721.329	-6.22
721.774	-2.42
722.219	-4.22
722.664	-6.02
723.109	-0.32
723.554	-2.82
723.999	-5.22
724.444	-4.52
724.889	-4.02
725.334	-4.02
725.779	-1.42
726.223	-8.12
726.668	1.28
727.113	-2.32
727.558	-4.32
728.002	-3.62
728.447	-5.42
728.892	-4.62
729.336	-2.42
729.781	-5.52
730.225	1.58
730.67	-0.92
731.114	-1.92
731.559	-4.32
732.003	-6.12
732.448	-3.12
732.892	-5.32
733.337	-5.62
733.781	-3.92
734.225	-5.32
734.67	-4.12
735.114	-0.02
735.558	2.08
736.002	-2.82
736.446	-0.92
736.891	-5.72
737.335	-2.42
737.779	-3.42
738.223	-4.62
738.667	-2.62
739.111	-4.32
739.555	-1.42
739.999	-5.12
740.443	-7.72
740.887	-1.02
741.33	-6.02
741.774	0.28
742.218	-3.02
742.662	-6.32
743.106	-2.92
743.549	-3.82
743.993	-4.02
744.437	-4.62
744.88	-1.12
745.324	-6.52
745.768	-0.32
746.211	-5.42
746.655	-4.72
747.098	-2.82
747.542	-0.52
747.985	-6.52
748.429	-2.72
748.872	-3.42
749.315	-4.92
749.759	-7.42
750.202	-2.32
750.645	-5.12
751.089	-5.02
751.532	-1.02
751.975	-3.12
752.418	-5.52
752.861	-5.82
753.305	-5.22
753.748	-6.42
754.191	-1.22
754.634	0.48
755.077	0.98
755.52	-5.92
755.963	-5.72
756.406	-1.32
756.849	-3.42
757.291	-0.82
757.734	3.78
758.177	-3.42
758.62	-8.52
759.063	-1.22
759.505	-4.82
759.948	-3.52
760.391	-1.82
760.833	-6.42
761.276	-3.42
761.719	-7.82
762.161	-6.42
762.604	-2.32
763.046	-5.02
763.489	-5.12
763.931	-3.22
764.374	-0.62
764.816	-9.02
765.258	-6.82
765.701	-6.02
766.143	-0.22
766.585	-0.82
767.028	-2.32
767.47	-3.32
767.912	-8.12
768.354	-4.72
768.796	-2.42
769.238	-6.02
769.681	0.38
770.123	1.48
770.565	-4.12
771.007	-4.22
771.449	-8.62
771.891	-3.02
772.333	-2.22
772.774	-5.32
773.216	-4.42
773.658	-1.82
774.1	-7.02
774.542	-3.12
774.984	-7.62
775.425	-3.52
775.867	-1.02
776.309	-9.42
776.75	-2.22
777.192	-6.62
777.634	-3.52
778.075	-3.02
778.517	-7.22
778.958	-6.62
779.4	-1.62
779.841	-5.22
780.283	-1.92
780.724	-2.02
781.165	-8.32
781.607	-7.32
782.048	-4.42
782.489	-7.92
782.931	-7.82
783.372	-1.22
783.813	-2.22
784.254	-2.22
784.695	-8.62
785.136	-1.62
785.578	-3.62
786.019	-0.92
786.46	-4.22
786.901	-3.82
787.342	-2.92
787.783	-0.22
788.224	-5.62
788.664	-4.42
789.105	-0.32
789.546	-2.92
789.987	-1.72
790.428	-2.92
790.869	-2.32
791.309	-3.72
791.75	-5.62
792.191	-3.72
792.631	0.88
793.072	-2.72
793.513	-0.62
793.953	-5.62
794.394	-3.52
794.834	-4.02
795.275	-7.52
795.715	-3.12
796.156	-0.32
796.596	-1.82
797.036	-2.92
797.477	-6.72
797.917	-9.62
798.357	0.98
798.798	-4.52
799.238	-4.62
