节点DUV_HRD08281_00001.txt的数据
Date: Sun Jan 19 19:56:15 CST 2020
User: lab329
Spectrometer: HR+D0828
触发模式: 0
积分时间 (秒): 5.000000E-2
Scans to average: 10
启用暗噪声校正: true
启用非线性校正: false
滑动平均宽度: 0
X轴模式: Wavelengths
Number of Pixels in Spectrum: 2048
>>>>>Begin Spectral Data<<<<<
186.281	-2.48
186.758	-2.48
187.234	-2.48
187.71	-0.48
188.187	3.42
188.663	2.52
189.139	-3.68
189.615	0.23
190.091	-0.08
190.567	-0.58
191.043	-2.77
191.519	1.73
191.995	0.52
192.471	-0.48
192.947	-1.98
193.423	2.62
193.899	-0.77
194.375	2.23
194.851	1.12
195.327	-4.38
195.803	-0.88
196.278	7.92
196.754	-1.58
197.23	1.42
197.706	4.02
198.181	5.02
198.657	0.23
199.133	-8.08
199.608	-1.98
200.084	-0.27
200.559	1.82
201.035	2.02
201.51	-0.48
201.986	-3.18
202.461	-1.08
202.937	2.12
203.412	2.32
203.887	-2.88
204.363	0.12
204.838	-2.98
205.313	1.62
205.789	-0.98
206.264	-0.08
206.739	1.23
207.214	-3.68
207.689	-0.98
208.165	-1.08
208.64	-0.88
209.115	-2.18
209.59	-2.88
210.065	-2.08
210.54	-3.68
211.015	-5.18
211.49	-6.68
211.965	-4.18
212.44	0.82
212.914	-3.48
213.389	-3.88
213.864	0.23
214.339	0.62
214.814	-3.48
215.288	-2.48
215.763	-4.68
216.238	-3.18
216.712	-3.68
217.187	-6.18
217.662	-0.08
218.136	1.82
218.611	-3.88
219.085	-1.68
219.56	-6.68
220.034	-5.68
220.509	-3.08
220.983	-2.48
221.458	-0.58
221.932	2.23
222.406	-4.77
222.881	-4.27
223.355	0.12
223.829	-1.88
224.303	-3.18
224.778	-5.88
225.252	-0.88
225.726	-1.77
226.2	-6.18
226.674	1.42
227.148	-3.77
227.622	2.52
228.096	-2.88
228.57	-3.77
229.044	0.52
229.518	1.52
229.992	0.62
230.466	60.92
230.94	4.12
231.414	0.12
231.888	0.62
232.361	-6.58
232.835	-2.88
233.309	-1.48
233.783	-0.48
234.256	-1.77
234.73	0.02
235.204	-3.18
235.677	-0.68
236.151	-3.18
236.624	-5.08
237.098	-5.58
237.571	-4.18
238.045	-1.88
238.518	-2.68
238.992	-2.88
239.465	0.23
239.939	0.52
240.412	0.82
240.885	2.42
241.359	-0.18
241.832	0.73
242.305	-5.38
242.778	-3.68
243.251	-0.98
243.725	0.73
244.198	-3.27
244.671	0.52
245.144	-3.08
245.617	-6.48
246.09	-0.18
246.563	-1.27
247.036	-2.18
247.509	4.73
247.982	-0.58
248.455	-0.58
248.928	-1.18
249.4	-1.68
249.873	-0.77
250.346	0.62
250.819	2.32
251.292	-4.18
251.764	-6.48
252.237	3.62
252.71	-3.58
253.182	0.32
253.655	-5.58
254.127	-4.48
254.6	1.52
255.073	26.92
255.545	1.73
256.018	1.02
256.49	1.12
256.962	-0.38
257.435	-3.58
257.907	-1.48
258.379	1.62
258.852	2.52
259.324	-4.38
259.796	0.12
260.269	1.12
260.741	-0.38
261.213	-2.77
261.685	-7.27
262.157	0.12
262.629	-2.08
263.101	2.23
263.574	-1.18
264.046	-1.77
264.518	-4.18
264.99	-3.77
265.461	0.52
265.933	-1.27
266.405	-1.38
266.877	0.23
267.349	-4.98
267.821	0.73
268.293	-4.38
268.764	0.42
269.236	-1.18
269.708	-3.77
270.18	1.02
270.651	-3.58
271.123	0.92
271.594	4.12
272.066	1.92
272.538	0.42
273.009	2.42
273.481	-1.68
273.952	-3.27
274.423	-3.98
274.895	1.82
275.366	2.62
275.838	-1.48
276.309	0.82
276.78	4.02
277.252	-0.18
277.723	0.92
278.194	-6.38
278.665	-3.77
279.136	-0.98
279.608	-1.98
280.079	-4.38
280.55	-1.58
281.021	-5.18
281.492	-3.77
281.963	-0.68
282.434	2.12
282.905	-1.08
283.376	1.52
283.847	-2.18
284.318	2.82
284.789	-1.68
285.259	-1.18
285.73	-2.98
286.201	-5.38
286.672	-4.98
287.143	-0.38
287.613	2.02
288.084	3.92
288.555	3.62
289.025	0.32
289.496	1.32
289.966	0.73
290.437	-5.18
290.907	-0.48
291.378	5.73
291.848	-3.08
292.319	-2.48
292.789	-1.18
293.26	0.52
293.73	-2.27
294.2	-1.27
294.671	-7.48
295.141	-1.27
295.611	0.52
296.081	-2.27
296.552	2.92
297.022	1.32
297.492	-6.68
297.962	-5.08
298.432	-1.08
298.902	0.82
299.372	-3.27
299.842	-0.68
300.312	1.32
300.782	3.12
301.252	-0.58
301.722	4.23
302.192	2.12
302.662	-0.38
303.132	-3.27
303.602	-0.98
304.071	1.92
304.541	2.12
305.011	-2.58
305.481	-2.27
305.95	2.23
306.42	-0.18
306.889	0.23
307.359	-3.58
307.829	3.42
308.298	-2.18
308.768	1.23
309.237	0.62
309.707	3.73
310.176	-2.18
310.645	3.02
311.115	0.32
311.584	-3.38
312.054	-1.98
312.523	-2.08
312.992	-0.38
313.461	3.32
313.931	-1.88
314.4	-0.48
314.869	1.02
315.338	2.23
315.807	-0.68
316.276	-4.77
316.745	0.02
317.214	1.92
317.683	-3.77
318.152	-0.48
318.621	0.52
319.09	-4.27
319.559	-4.27
320.028	-6.48
320.497	2.62
320.966	-3.58
321.435	-1.98
321.903	3.12
322.372	-2.88
322.841	2.62
323.31	-0.08
323.778	2.52
324.247	-0.08
324.715	-0.88
325.184	0.52
325.653	0.42
326.121	1.32
326.59	2.52
327.058	-1.58
327.527	-0.88
327.995	5.92
328.463	3.02
328.932	0.82
329.4	3.82
329.868	8.52
330.337	-0.08
330.805	5.82
331.273	-0.27
331.741	4.52
332.21	7.23
332.678	1.32
333.146	12.62
333.614	8.12
334.082	7.32
334.55	5.12
335.018	13.92
335.486	10.73
335.954	12.23
336.422	14.32
336.89	21.73
337.358	27.73
337.826	37.82
338.294	78.52
338.762	153.82
339.229	294.62
339.697	611.93
340.165	1174.93
340.633	2148.43
341.1	3617.13
341.568	5968.82
342.035	9186.12
342.503	12477.82
342.971	14440.52
343.438	14854.42
343.906	13659.82
344.373	9793.23
344.841	4891.32
345.308	1987.72
345.776	730.12
346.243	288.02
346.71	146.82
347.178	87.82
347.645	64.82
348.112	45.73
348.58	29.92
349.047	25.92
349.514	20.42
349.981	10.12
350.448	7.92
350.915	7.73
351.383	11.92
351.85	10.32
352.317	13.92
352.784	8.73
353.251	11.52
353.718	11.32
354.185	6.23
354.651	9.92
355.118	9.82
355.585	9.12
356.052	13.73
356.519	5.92
356.986	10.52
357.452	8.92
357.919	3.62
358.386	8.23
358.853	10.52
359.319	4.82
359.786	6.23
360.252	3.73
360.719	1.82
361.185	-0.18
361.652	3.52
362.118	3.42
362.585	2.92
363.051	-0.27
363.518	2.52
363.984	0.73
364.451	4.82
364.917	-2.18
365.383	-1.27
365.849	6.23
366.316	2.42
366.782	-7.98
367.248	0.12
367.714	-0.68
368.18	-1.27
368.647	-0.77
369.113	1.23
369.579	2.02
370.045	2.23
370.511	-1.98
370.977	-2.48
371.443	1.23
371.909	-3.18
372.374	1.92
372.84	-4.27
373.306	-2.38
373.772	-2.98
374.238	-3.48
374.704	1.32
375.169	1.62
375.635	-2.38
376.101	-2.77
376.566	2.73
377.032	3.32
377.498	-3.18
377.963	-1.58
378.429	4.73
378.894	-1.18
379.36	-2.68
379.825	1.62
380.291	-6.68
380.756	-1.88
381.222	-7.68
381.687	-0.18
382.152	-1.18
382.618	0.62
383.083	-4.27
383.548	-2.27
384.013	-1.48
384.479	0.23
384.944	-4.08
385.409	-2.88
385.874	-4.48
386.339	-2.88
386.804	-6.18
387.269	-4.68
387.734	3.52
388.199	-3.48
388.664	-3.68
389.129	-2.68
389.594	-3.77
390.059	-2.08
390.524	-5.98
390.989	-1.77
391.453	3.12
391.918	-4.48
392.383	-1.48
392.848	-1.58
393.312	0.52
393.777	1.92
394.242	-1.08
394.706	2.42
395.171	-0.77
395.635	-2.18
396.1	-0.68
396.565	-6.68
397.029	2.02
397.493	-2.18
397.958	-1.18
398.422	-1.38
398.887	-2.48
399.351	-1.77
399.815	4.02
400.28	0.42
400.744	-1.48
401.208	0.92
401.672	0.02
402.137	3.92
402.601	3.23
403.065	-2.48
403.529	-3.58
403.993	-0.58
404.457	-2.38
404.921	2.02
405.385	-2.48
405.849	-0.68
406.313	-0.18
406.777	-3.48
407.241	-2.88
407.705	-0.58
408.169	-0.08
408.632	-4.98
409.096	-2.38
409.56	-6.38
410.024	-0.58
410.487	-1.88
410.951	-0.68
411.415	-0.77
411.878	-6.08
412.342	0.62
412.806	-2.77
413.269	1.42
413.733	-0.38
414.196	-3.77
414.66	-2.58
415.123	0.92
415.587	-4.98
416.05	-0.27
416.513	-4.27
416.977	-3.68
417.44	-0.48
417.903	-3.58
418.366	0.32
418.83	-1.88
419.293	-4.48
419.756	-2.77
420.219	-3.98
420.682	1.12
421.145	-3.88
421.608	-3.38
422.072	-4.18
422.535	-0.88
422.998	-3.98
423.46	-0.98
423.923	-2.48
424.386	-5.58
424.849	-2.58
425.312	-1.68
425.775	0.23
426.238	-2.98
426.7	-4.48
427.163	-2.98
427.626	-3.48
428.089	-2.88
428.551	-3.58
429.014	-4.08
429.477	3.42
429.939	-2.68
430.402	-4.58
430.864	0.73
431.327	0.23
431.789	-6.58
432.252	-1.38
432.714	-5.48
433.176	-7.27
433.639	-2.08
434.101	-3.18
434.563	4.52
435.026	-3.48
435.488	-3.98
435.95	-2.58
436.412	4.92
436.875	-1.38
437.337	0.82
437.799	-2.88
438.261	-0.38
438.723	0.23
439.185	-5.38
439.647	-2.18
440.109	-0.88
440.571	-5.77
441.033	2.02
441.495	-3.88
441.957	-2.77
442.419	-2.18
442.881	-2.58
443.342	1.42
443.804	-2.48
444.266	-3.48
444.728	-4.68
445.189	-2.88
445.651	3.12
446.113	-5.08
446.574	-2.77
447.036	-3.48
447.497	-2.98
447.959	-10.68
448.421	-2.98
448.882	-1.38
449.343	-5.38
449.805	-0.88
450.266	-4.77
450.728	-3.68
451.189	-4.98
451.65	-2.68
452.112	-4.18
452.573	-2.18
453.034	-2.88
453.495	-2.98
453.957	-4.27
454.418	-2.27
454.879	-0.38
455.34	-6.68
455.801	-1.38
456.262	-3.38
456.723	-2.77
457.184	-1.48
457.645	-8.58
458.106	-1.88
458.567	-2.38
459.028	-2.68
459.489	-3.98
459.95	1.12
460.41	-2.48
460.871	-5.27
461.332	-4.77
461.793	-3.18
462.253	-6.58
462.714	-6.27
463.175	-1.88
463.635	-2.38
464.096	-2.27
464.556	-5.08
465.017	-3.58
465.478	-6.18
465.938	-7.18
466.398	-8.38
466.859	-2.38
467.319	-4.58
467.78	-6.77
468.24	-2.38
468.7	-0.48
469.161	-9.77
469.621	-5.38
470.081	-1.27
470.541	-5.08
471.002	-8.68
471.462	-5.08
471.922	-1.08
472.382	-0.08
472.842	-1.98
473.302	-5.98
473.762	-1.68
474.222	-0.58
474.682	-6.58
475.142	-2.27
475.602	-4.48
476.062	-5.58
476.522	-3.68
476.982	-6.98
477.442	-2.08
477.901	-0.27
478.361	-4.18
478.821	-1.58
479.281	-7.48
479.74	1.12
480.2	-4.18
480.659	-5.88
481.119	-4.48
481.579	-2.68
482.038	-6.08
482.498	-4.68
482.957	0.02
483.417	-3.48
483.876	-5.98
484.336	-1.98
484.795	-6.68
485.254	-9.58
485.714	-6.27
486.173	-5.38
486.632	-3.88
487.091	-2.27
487.551	-6.68
488.01	-5.58
488.469	-3.18
488.928	-7.38
489.387	-6.08
489.846	-4.58
490.305	-6.08
490.764	-7.38
491.223	-5.77
491.682	-3.88
492.141	-2.08
492.6	-8.58
493.059	-4.68
493.518	-3.88
493.977	-6.77
494.436	-6.68
494.895	-2.18
495.353	-5.27
495.812	-5.77
496.271	-5.98
496.729	-5.08
497.188	-5.08
497.647	-2.88
498.105	-5.58
498.564	-4.08
499.022	-2.38
499.481	-1.68
499.939	-10.08
500.398	-6.27
500.856	-2.68
501.315	-7.48
501.773	-5.08
502.232	-1.77
502.69	-1.68
503.148	-2.18
503.606	-7.77
504.065	0.92
504.523	-1.18
504.981	-4.77
505.439	-1.68
505.897	-3.27
506.356	-4.48
506.814	-7.27
507.272	-4.27
507.73	-5.38
508.188	-6.27
508.646	-6.08
509.104	-3.88
509.562	-0.77
510.02	-0.68
510.477	-2.18
510.935	-5.98
511.393	-6.08
511.851	-0.48
512.309	-6.48
512.766	-5.48
513.224	-9.58
513.682	-4.77
514.139	-1.68
514.597	-5.48
515.055	-5.48
515.512	-2.98
515.97	-2.98
516.427	-2.77
516.885	-6.48
517.342	-3.48
517.8	-2.08
518.257	1.32
518.714	3.62
519.172	-7.08
519.629	-5.38
520.086	-1.08
520.544	-2.98
521.001	-8.68
521.458	-0.08
521.915	-3.38
522.373	-2.88
522.83	-1.48
523.287	-1.08
523.744	-4.27
524.201	-4.48
524.658	-4.08
525.115	-3.38
525.572	-1.38
526.029	1.62
526.486	3.23
526.943	-6.18
527.4	-1.18
527.857	-9.08
528.313	-4.58
528.77	-5.88
529.227	-5.08
529.684	-7.98
530.14	-2.68
530.597	-6.27
531.054	-3.58
531.51	-9.68
531.967	-9.68
532.423	-8.38
532.88	-5.48
533.337	-4.27
533.793	-2.68
534.25	-1.38
534.706	-2.27
535.162	-5.18
535.619	-4.58
536.075	-3.68
536.531	-2.98
536.988	-3.27
537.444	-3.88
537.9	-6.08
538.356	-7.68
538.813	-3.27
539.269	-3.18
539.725	-1.27
540.181	-6.88
540.637	-10.98
541.093	-5.38
541.549	-1.98
542.005	-6.58
542.461	-7.77
542.917	-5.27
543.373	-3.48
543.829	-6.27
544.285	-9.58
544.741	-9.18
545.197	2.42
545.652	-4.48
546.108	1.23
546.564	-7.98
547.02	-3.58
547.475	-7.27
547.931	-5.08
548.387	-3.58
548.842	-3.77
549.298	-4.68
549.753	-8.77
550.209	-5.08
550.664	-6.58
551.12	-3.08
551.575	-10.18
552.031	-2.98
552.486	-7.77
552.941	-9.48
553.397	0.12
553.852	-0.58
554.307	-5.88
554.762	-9.88
555.218	-9.18
555.673	-3.68
556.128	-7.88
556.583	-5.58
557.038	-4.48
557.493	-6.58
557.948	-5.18
558.403	-7.08
558.858	-6.08
559.313	-1.77
559.768	-5.27
560.223	-6.08
560.678	-9.27
561.133	-2.48
561.588	-6.98
562.043	-3.88
562.497	-5.77
562.952	-3.58
563.407	-4.58
563.862	-4.27
564.316	-4.08
564.771	-7.18
565.226	-4.98
565.68	-3.38
566.135	-6.98
566.589	-0.98
567.044	-4.58
567.498	-10.18
567.953	-2.68
568.407	-7.27
568.862	-14.08
569.316	-8.58
569.77	-1.98
570.225	-5.27
570.679	-5.98
571.133	-6.77
571.587	-3.68
572.042	-4.77
572.496	-4.27
572.95	-5.18
573.404	-8.08
573.858	-7.27
574.312	-8.08
574.766	-2.68
575.22	-5.68
575.674	-9.98
576.128	-6.38
576.582	-9.77
577.036	-6.68
577.49	-6.58
577.944	-8.98
578.398	-4.58
578.852	-7.08
579.305	-4.98
579.759	-8.27
580.213	-4.98
580.666	-4.48
581.12	-5.58
581.574	-5.18
582.027	-2.77
582.481	-4.58
582.935	-2.27
583.388	-5.77
583.842	-5.38
584.295	-5.68
584.748	-8.88
585.202	-4.08
585.655	-3.48
586.109	-6.38
586.562	-5.08
587.015	-7.27
587.469	-2.77
587.922	-5.58
588.375	-1.98
588.828	-6.27
589.281	-5.58
589.735	-6.68
590.188	-3.48
590.641	-6.68
591.094	-1.77
591.547	-5.48
592	-6.38
592.453	-6.38
592.906	-7.77
593.359	-8.18
593.812	-7.58
594.265	-3.38
594.717	2.32
595.17	-7.88
595.623	-7.27
596.076	-4.98
596.529	-4.27
596.981	-4.48
597.434	-4.77
597.887	-6.58
598.339	-4.58
598.792	-9.88
599.245	-9.18
599.697	-3.58
600.15	-3.98
600.602	-7.98
601.055	-4.18
601.507	-4.88
601.959	-1.68
602.412	-4.98
602.864	-5.18
603.316	-6.58
603.769	-3.58
604.221	-2.27
604.673	-4.58
605.126	0.62
605.578	-5.98
606.03	-2.48
606.482	-10.38
606.934	-5.77
607.386	-5.58
607.838	-5.98
608.29	-4.58
608.742	-3.18
609.194	-6.88
609.646	-6.27
610.098	-4.48
610.55	-2.68
611.002	-9.88
611.454	-6.27
611.906	-0.38
612.357	-6.68
612.809	-7.58
613.261	-11.08
613.713	-3.08
614.164	-4.77
614.616	-7.27
615.068	-6.77
615.519	0.23
615.971	-6.58
616.422	-5.98
616.874	-8.08
617.325	-6.27
617.777	-5.77
618.228	-7.88
618.68	-4.98
619.131	-8.18
619.582	-10.18
620.034	-8.27
620.485	-6.18
620.936	-1.27
621.387	-10.48
621.839	-10.18
622.29	-8.27
622.741	-7.88
623.192	-7.68
623.643	-6.48
624.094	-6.58
624.545	-4.98
624.996	-10.08
625.447	-8.68
625.898	-3.98
626.349	-9.38
626.8	-12.38
627.251	-9.98
627.702	-4.77
628.153	-9.48
628.604	-7.38
629.054	-4.68
629.505	-7.77
629.956	-7.48
630.406	-6.77
630.857	-2.58
631.308	-5.98
631.758	-8.27
632.209	-5.48
632.66	-8.88
633.11	-7.18
633.561	-5.98
634.011	-5.98
634.461	-5.38
634.912	-4.48
635.362	-4.48
635.813	-8.48
636.263	-1.58
636.713	-7.68
637.164	-8.68
637.614	-9.38
638.064	-8.68
638.514	-2.08
638.964	-5.48
639.415	-6.68
639.865	-4.68
640.315	-8.08
640.765	-6.27
641.215	-6.77
641.665	-9.98
642.115	-1.68
642.565	-9.08
643.015	-10.88
643.465	-8.98
643.915	-8.48
644.364	-5.88
644.814	-9.68
645.264	-7.88
645.714	-6.98
646.163	-7.77
646.613	-5.48
647.063	-5.27
647.513	-5.48
647.962	-5.77
648.412	-4.98
648.861	-6.48
649.311	-8.27
649.76	-8.18
650.21	-6.68
650.659	-5.77
651.109	-4.88
651.558	-8.58
652.008	-4.38
652.457	-6.88
652.906	-5.88
653.356	-8.08
653.805	-11.88
654.254	-3.38
654.703	-7.77
655.152	-6.88
655.602	-4.58
656.051	-4.18
656.5	-5.58
656.949	-6.27
657.398	-8.18
657.847	-6.27
658.296	-8.18
658.745	-6.48
659.194	-6.27
659.643	-7.58
660.092	-7.27
660.541	-5.68
660.989	-4.98
661.438	-3.38
661.887	-1.38
662.336	-2.18
662.784	-6.77
663.233	-8.38
663.682	-11.88
664.13	-6.68
664.579	-4.08
665.028	-1.38
665.476	-2.27
665.925	-4.08
666.373	-8.68
666.822	-4.88
667.27	-8.68
667.719	-3.48
668.167	-5.48
668.615	-8.77
669.064	-6.77
669.512	-3.88
669.96	1.42
670.408	-8.38
670.857	-9.77
671.305	-0.38
671.753	-7.27
672.201	-7.27
672.649	-5.88
673.097	-2.38
673.545	-4.77
673.993	-9.98
674.441	-3.68
674.889	-7.08
675.337	-8.18
675.785	-2.27
676.233	-4.68
676.681	-6.38
677.129	-7.68
677.577	-7.77
678.025	-6.27
678.472	-3.48
678.92	-8.38
679.368	-8.98
679.815	-9.48
680.263	0.12
680.711	-5.77
681.158	-5.08
681.606	-4.58
682.053	-7.08
682.501	-5.88
682.948	-7.18
683.396	-4.68
683.843	-2.48
684.291	-10.18
684.738	-8.58
685.185	-6.68
685.633	-2.38
686.08	-8.18
686.527	-8.58
686.974	-3.98
687.422	-5.18
687.869	-8.38
688.316	-7.18
688.763	-0.27
689.21	-3.88
689.657	-4.58
690.104	-2.38
690.551	-11.08
690.998	-6.77
691.445	-5.48
691.892	-4.68
692.339	-6.68
692.786	-7.08
693.233	-6.98
693.68	-12.98
694.127	-5.48
694.573	-4.27
695.02	-7.27
695.467	-4.27
695.913	-0.27
696.36	-3.08
696.807	-6.27
697.253	-7.18
697.7	-0.27
698.146	-6.98
698.593	-5.68
699.039	-3.98
699.486	-1.88
699.932	-4.38
700.379	-3.68
700.825	-5.98
701.272	-4.27
701.718	-4.08
702.164	-8.58
702.61	-4.08
703.057	-3.68
703.503	-4.18
703.949	-5.48
704.395	-4.77
704.841	-4.77
705.287	-6.58
705.734	-10.08
706.18	-1.58
706.626	-6.68
707.072	-6.38
707.518	-6.27
707.964	-2.27
708.409	-11.27
708.855	-5.88
709.301	-3.77
709.747	-4.68
710.193	-4.98
710.639	-10.27
711.084	-0.18
711.53	-7.88
711.976	-5.68
712.421	-12.38
712.867	-5.58
713.313	-4.27
713.758	-1.58
714.204	-5.88
714.649	-9.27
715.095	-6.77
715.54	-7.68
715.986	-6.68
716.431	-6.68
716.877	-2.18
717.322	-7.68
717.767	-5.58
718.213	-2.77
718.658	-0.27
719.103	-9.18
719.548	-6.27
719.994	-3.38
720.439	-2.27
720.884	-7.48
721.329	-6.77
721.774	-3.08
722.219	-7.98
722.664	-8.88
723.109	-5.68
723.554	-0.08
723.999	-2.77
724.444	-4.27
724.889	-4.08
725.334	-5.08
725.779	-7.68
726.223	-7.98
726.668	-4.68
727.113	-1.38
727.558	-1.08
728.002	-8.38
728.447	-8.68
728.892	-7.08
729.336	-6.27
729.781	-6.18
730.225	-6.27
730.67	-5.38
731.114	-6.48
731.559	-0.88
732.003	-4.38
732.448	-3.08
732.892	-5.48
733.337	-8.98
733.781	-5.38
734.225	-2.18
734.67	-5.68
735.114	-4.18
735.558	-1.48
736.002	-8.27
736.446	-1.88
736.891	-3.38
737.335	-5.68
737.779	-2.08
738.223	-10.18
738.667	-6.38
739.111	-5.48
739.555	-4.68
739.999	-4.98
740.443	-4.38
740.887	-5.38
741.33	-5.98
741.774	-9.68
742.218	-1.88
742.662	-1.68
743.106	-8.27
743.549	-5.77
743.993	-8.27
744.437	-3.38
744.88	-8.48
745.324	-3.18
745.768	-4.68
746.211	-4.77
746.655	-3.77
747.098	-5.58
747.542	-6.48
747.985	-0.68
748.429	-6.38
748.872	-8.48
749.315	-1.68
749.759	-1.68
750.202	-5.48
750.645	-7.58
751.089	-0.48
751.532	-0.88
751.975	-5.27
752.418	-7.08
752.861	-4.48
753.305	-2.77
753.748	-10.27
754.191	-3.68
754.634	-0.77
755.077	-4.27
755.52	-4.08
755.963	-10.77
756.406	-6.38
756.849	-5.98
757.291	-3.18
757.734	-4.58
758.177	-0.88
758.62	-6.98
759.063	-0.38
759.505	0.23
759.948	-4.58
760.391	-6.98
760.833	-3.58
761.276	1.82
761.719	-8.08
762.161	-6.88
762.604	-2.48
763.046	-6.88
763.489	-2.48
763.931	-1.88
764.374	-1.18
764.816	2.92
765.258	-7.38
765.701	-8.58
766.143	-2.68
766.585	-1.88
767.028	-2.27
767.47	-1.68
767.912	-7.77
768.354	-7.58
768.796	-1.38
769.238	-4.48
769.681	-3.98
770.123	2.23
770.565	-1.58
771.007	1.62
771.449	-7.18
771.891	-4.58
772.333	-6.08
772.774	-7.27
773.216	0.82
773.658	0.62
774.1	-1.48
774.542	-6.98
774.984	-7.48
775.425	-1.48
775.867	-10.18
776.309	-6.27
776.75	-3.48
777.192	2.42
777.634	-3.48
778.075	-4.27
778.517	-0.88
778.958	-4.88
779.4	-5.08
779.841	-6.27
780.283	-6.48
780.724	-5.88
781.165	-5.27
781.607	-2.58
782.048	-2.08
782.489	-4.18
782.931	-3.88
783.372	-2.77
783.813	3.73
784.254	-6.68
784.695	-6.08
785.136	-2.77
785.578	-2.88
786.019	-4.88
786.46	1.82
786.901	-4.68
787.342	-4.18
787.783	-4.08
788.224	-5.08
788.664	-3.88
789.105	-1.27
789.546	-3.88
789.987	-4.08
790.428	-1.77
790.869	-3.98
791.309	-4.88
791.75	-2.38
792.191	-0.38
792.631	-0.77
793.072	-4.77
793.513	2.42
793.953	-1.08
794.394	-4.08
794.834	-1.77
795.275	-5.98
795.715	-5.18
796.156	-5.38
796.596	-9.38
797.036	1.02
797.477	-5.08
797.917	-4.98
