节点UV_HRD08281_00005.txt的数据
Date: Wed Jan 15 10:28:28 CST 2020
User: lab329
Spectrometer: HR+D0828
触发模式: 0
积分时间 (秒): 1.000000E-1
Scans to average: 10
启用暗噪声校正: false
启用非线性校正: false
滑动平均宽度: 0
X轴模式: Wavelengths
Number of Pixels in Spectrum: 2048
>>>>>Begin Spectral Data<<<<<
186.281	783.1
186.758	783.1
187.234	783.1
187.71	779.6
188.187	777.3
188.663	781.7
189.139	786.5
189.615	783.5
190.091	784
190.567	782.4
191.043	779.5
191.519	789.4
191.995	792
192.471	785.7
192.947	782.8
193.423	783.5
193.899	786.6
194.375	785
194.851	781
195.327	784.8
195.803	781.4
196.278	802
196.754	788.1
197.23	785.6
197.706	785.5
198.181	789.1
198.657	778.5
199.133	784.8
199.608	785.6
200.084	783.3
200.559	784.3
201.035	783.1
201.51	784.4
201.986	782.9
202.461	782.9
202.937	781.9
203.412	781.3
203.887	781.5
204.363	783.8
204.838	781.1
205.313	778.2
205.789	782.3
206.264	779.9
206.739	778.2
207.214	781.9
207.689	780.2
208.165	781.1
208.64	779.3
209.115	783.9
209.59	780.7
210.065	781.4
210.54	780.8
211.015	784.5
211.49	780.5
211.965	783.2
212.44	782.2
212.914	781
213.389	779.1
213.864	780.9
214.339	778.9
214.814	780.5
215.288	777
215.763	783.1
216.238	782.3
216.712	777.5
217.187	783.1
217.662	783.1
218.136	780.8
218.611	779.7
219.085	777.8
219.56	782
220.034	781.3
220.509	776
220.983	787.4
221.458	780.1
221.932	779.2
222.406	781.9
222.881	777.8
223.355	780.6
223.829	787.6
224.303	781.9
224.778	780.2
225.252	784.1
225.726	783.6
226.2	786.3
226.674	784.4
227.148	780
227.622	780.3
228.096	783
228.57	782.4
229.044	780
229.518	780.5
229.992	793.3
230.466	861
230.94	791.1
231.414	777.8
231.888	772.6
232.361	782.2
232.835	780.2
233.309	780.3
233.783	781.8
234.256	780
234.73	782.7
235.204	780.3
235.677	782.2
236.151	778.5
236.624	781.1
237.098	776.8
237.571	780.1
238.045	781.7
238.518	781.7
238.992	783
239.465	775.9
239.939	780.1
240.412	784.5
240.885	781.9
241.359	782.8
241.832	780.2
242.305	779.4
242.778	783.5
243.251	779.3
243.725	779.2
244.198	789
244.671	776.4
245.144	781.3
245.617	784.2
246.09	777.1
246.563	782.9
247.036	784.7
247.509	781.6
247.982	784
248.455	774.8
248.928	780.6
249.4	781.9
249.873	780.5
250.346	781
250.819	776.1
251.292	786.3
251.764	783.6
252.237	780.5
252.71	777.3
253.182	779.8
253.655	781.2
254.127	783.1
254.6	789.6
255.073	840.3
255.545	786.4
256.018	779.6
256.49	781.4
256.962	783.8
257.435	781.5
257.907	783.7
258.379	784.6
258.852	782.3
259.324	780.6
259.796	778.4
260.269	783.2
260.741	782.7
261.213	780
261.685	780.7
262.157	781.2
262.629	780.5
263.101	781.7
263.574	782.6
264.046	784.8
264.518	785.3
264.99	777.6
265.461	780.8
265.933	781.8
266.405	781.1
266.877	781.6
267.349	784.4
267.821	785.8
268.293	785.2
268.764	782.4
269.236	781
269.708	787
270.18	781
270.651	782.7
271.123	785.2
271.594	779.2
272.066	784.1
272.538	791.3
273.009	780.9
273.481	788.6
273.952	781
274.423	779.7
274.895	784.2
275.366	787.6
275.838	780.2
276.309	781.1
276.78	780.4
277.252	783.9
277.723	780.5
278.194	782.9
278.665	784.7
279.136	781.2
279.608	780.3
280.079	778
280.55	784
281.021	785.6
281.492	778.8
281.963	780.2
282.434	785.9
282.905	778.8
283.376	788.8
283.847	780.9
284.318	784.7
284.789	784.4
285.259	784.4
285.73	782.6
286.201	782.3
286.672	779
287.143	785
287.613	780.8
288.084	782.5
288.555	784.4
289.025	783
289.496	784.6
289.966	782.4
290.437	779.2
290.907	783.8
291.378	781.1
291.848	783.4
292.319	786.5
292.789	784.4
293.26	780.9
293.73	779.7
294.2	778
294.671	783.3
295.141	782.8
295.611	785.5
296.081	787.8
296.552	780.7
297.022	783.5
297.492	784.7
297.962	780.3
298.432	783.5
298.902	785.6
299.372	782.2
299.842	785.2
300.312	782.6
300.782	778.6
301.252	780.4
301.722	784.6
302.192	784.2
302.662	785.9
303.132	782.4
303.602	784.3
304.071	786.2
304.541	783.7
305.011	779.5
305.481	781.8
305.95	784.8
306.42	783.6
306.889	780.4
307.359	786.5
307.829	788.7
308.298	783.8
308.768	784.9
309.237	777.9
309.707	779.9
310.176	784.5
310.645	781
311.115	783.5
311.584	782.9
312.054	780.9
312.523	782.6
312.992	781
313.461	779.7
313.931	784.4
314.4	780.9
314.869	782.9
315.338	785.2
315.807	780.1
316.276	783.3
316.745	781
317.214	784.5
317.683	787.2
318.152	779.2
318.621	781.4
319.09	785
319.559	783
320.028	787.3
320.497	777.6
320.966	785.6
321.435	786.3
321.903	782.1
322.372	786.6
322.841	787.6
323.31	784.3
323.778	786.7
324.247	783.6
324.715	783.7
325.184	786.2
325.653	784.3
326.121	781.9
326.59	783.5
327.058	783.7
327.527	787.4
327.995	781.8
328.463	783.2
328.932	785.4
329.4	781.5
329.868	782.4
330.337	786.5
330.805	784.1
331.273	785.6
331.741	783.8
332.21	783.7
332.678	783.6
333.146	780.8
333.614	785.9
334.082	789.3
334.55	778.9
335.018	786.2
335.486	786.6
335.954	780.4
336.422	784.1
336.89	780.5
337.358	786
337.826	790.1
338.294	785
338.762	786.6
339.229	788.7
339.697	782
340.165	784.4
340.633	781.8
341.1	785.6
341.568	788.1
342.035	780.5
342.503	786
342.971	788.1
343.438	785.4
343.906	784.3
344.373	788.2
344.841	782.4
345.308	786
345.776	786.9
346.243	783.2
346.71	785.1
347.178	784.9
347.645	788.6
348.112	788.1
348.58	785.8
349.047	781.7
349.514	789
349.981	786.8
350.448	791.6
350.915	788.5
351.383	785.5
351.85	789.1
352.317	792.3
352.784	796.3
353.251	791.7
353.718	794.5
354.185	799.6
354.651	797.4
355.118	792.8
355.585	801.1
356.052	803.7
356.519	798.9
356.986	803.2
357.452	807.4
357.919	807.9
358.386	806.8
358.853	807.9
359.319	807.6
359.786	809.2
360.252	815.3
360.719	812.8
361.185	817.7
361.652	819.4
362.118	825.3
362.585	843.4
363.051	861.2
363.518	899.5
363.984	975.5
364.451	1097.9
364.917	1296.2
365.383	1602.3
365.849	2038
366.316	2643.9
366.782	3451
367.248	4471
367.714	5667.1
368.18	7156.8
368.647	8550.6
369.113	9633.8
369.579	10456.8
370.045	11082.4
370.511	11161.7
370.977	11148.6
371.443	10576.8
371.909	9628.5
372.374	8423.7
372.84	7099.4
373.306	5912.3
373.772	4801.5
374.238	3792.6
374.704	3006.3
375.169	2389.6
375.635	1910.9
376.101	1546.5
376.566	1297.3
377.032	1147.3
377.498	1028.3
377.963	958.7
378.429	912.9
378.894	879.5
379.36	866.6
379.825	853.7
380.291	847.7
380.756	847.1
381.222	833.9
381.687	835.2
382.152	833.8
382.618	834.5
383.083	838.3
383.548	834.2
384.013	828.4
384.479	825.9
384.944	821.1
385.409	819.6
385.874	820.4
386.339	816.6
386.804	815.4
387.269	810.2
387.734	814.8
388.199	811
388.664	805.1
389.129	803.1
389.594	804.5
390.059	801.8
390.524	806.4
390.989	799.6
391.453	795.4
391.918	799.2
392.383	796.6
392.848	795
393.312	794
393.777	791.3
394.242	790.1
394.706	787.5
395.171	792.4
395.635	787.5
396.1	785.8
396.565	786.4
397.029	787.1
397.493	785.8
397.958	784.2
398.422	783.9
398.887	785.4
399.351	783.1
399.815	781.5
400.28	783.8
400.744	786.2
401.208	783
401.672	782.3
402.137	784.6
402.601	784.5
403.065	784.4
403.529	784.5
403.993	779.3
404.457	789.5
404.921	783
405.385	788.2
405.849	780.4
406.313	785.8
406.777	785.1
407.241	784.4
407.705	784.5
408.169	785.6
408.632	784.9
409.096	784.8
409.56	780.4
410.024	785
410.487	785.7
410.951	776.8
411.415	786.1
411.878	786.8
412.342	784.1
412.806	785.8
413.269	778.6
413.733	783
414.196	783.9
414.66	778
415.123	779.6
415.587	784.1
416.05	785.6
416.513	786.7
416.977	783.4
417.44	782.9
417.903	783.3
418.366	781.1
418.83	783.7
419.293	784.6
419.756	780.8
420.219	780.8
420.682	782.9
421.145	785.6
421.608	781.5
422.072	783.8
422.535	782.5
422.998	786.2
423.46	778.8
423.923	784.7
424.386	779.3
424.849	785.3
425.312	783.2
425.775	782.7
426.238	787.3
426.7	782.4
427.163	781.2
427.626	782.4
428.089	780.7
428.551	778.4
429.014	785.7
429.477	784.4
429.939	781.2
430.402	782
430.864	778.4
431.327	783.6
431.789	787.2
432.252	780.1
432.714	783.8
433.176	786
433.639	783.3
434.101	782.1
434.563	779.4
435.026	778.1
435.488	782.7
435.95	785.1
436.412	780.4
436.875	781.3
437.337	781.3
437.799	786.7
438.261	782.1
438.723	785.3
439.185	779.9
439.647	782.2
440.109	781.4
440.571	784.1
441.033	777
441.495	784.2
441.957	779.7
442.419	787.9
442.881	785.2
443.342	775.7
443.804	788.1
444.266	784.2
444.728	778.2
445.189	788.1
445.651	780
446.113	787
446.574	781.6
447.036	780.5
447.497	783.3
447.959	777.9
448.421	781.5
448.882	785.2
449.343	781.7
449.805	782.1
450.266	779.1
450.728	781
451.189	784.8
451.65	782.1
452.112	781.8
452.573	781.6
453.034	784.5
453.495	778.9
453.957	786
454.418	775.5
454.879	782.9
455.34	788.1
455.801	781.9
456.262	779.1
456.723	781.7
457.184	784.4
457.645	777.9
458.106	782.4
458.567	788.9
459.028	782.5
459.489	781.4
459.95	783.7
460.41	784.8
460.871	776.9
461.332	783.1
461.793	782.8
462.253	781.8
462.714	787.5
463.175	779.6
463.635	782.1
464.096	779
464.556	781.6
465.017	780.7
465.478	782
465.938	780.9
466.398	780.8
466.859	783
467.319	784.1
467.78	780.9
468.24	779.8
468.7	782.9
469.161	785.7
469.621	782.6
470.081	783.5
470.541	779.7
471.002	782.8
471.462	788
471.922	786
472.382	783.4
472.842	782.8
473.302	778.1
473.762	782.9
474.222	778.7
474.682	776
475.142	778.8
475.602	780.1
476.062	781.7
476.522	781.8
476.982	780.2
477.442	782.8
477.901	779.6
478.361	789
478.821	787.3
479.281	783.4
479.74	780.8
480.2	782
480.659	783
481.119	786.4
481.579	779.9
482.038	783.7
482.498	781.6
482.957	778.9
483.417	783.3
483.876	780.3
484.336	780.8
484.795	782.3
485.254	779.3
485.714	780.5
486.173	781
486.632	775.7
487.091	777.4
487.551	781
488.01	780.9
488.469	782
488.928	779.9
489.387	778.9
489.846	782.4
490.305	780.7
490.764	781.7
491.223	784.6
491.682	779.2
492.141	780.3
492.6	782.9
493.059	776.1
493.518	780.8
493.977	778.4
494.436	782.5
494.895	775
495.353	779.8
495.812	781.9
496.271	781.9
496.729	776.8
497.188	780.5
497.647	777.2
498.105	778.5
498.564	775
499.022	772.6
499.481	777.1
499.939	781.5
500.398	779.1
500.856	777.1
501.315	776.1
501.773	780.5
502.232	785.1
502.69	780
503.148	777.9
503.606	779.9
504.065	778.5
504.523	780.8
504.981	783.8
505.439	777.4
505.897	781
506.356	778.2
506.814	782
507.272	776.1
507.73	773
508.188	778
508.646	779.5
509.104	776.8
509.562	780.9
510.02	776
510.477	779.8
510.935	781.9
511.393	773.2
511.851	776.8
512.309	779.3
512.766	774.3
513.224	776.3
513.682	778.4
514.139	783.5
514.597	784
515.055	779.6
515.512	782.8
515.97	782.8
516.427	774.9
516.885	781.8
517.342	780.7
517.8	775.4
518.257	784.1
518.714	783.7
519.172	775.9
519.629	781.7
520.086	774.8
520.544	773.3
521.001	780.5
521.458	778.2
521.915	777.5
522.373	775.7
522.83	780.4
523.287	779.7
523.744	781.4
524.201	779.7
524.658	776.8
525.115	778.6
525.572	780.1
526.029	778.5
526.486	781.5
526.943	784.4
527.4	783.8
527.857	781.6
528.313	779.6
528.77	774.9
529.227	779.6
529.684	779.3
530.14	777.3
530.597	776.8
531.054	771
531.51	776.4
531.967	781.6
532.423	777.5
532.88	779.5
533.337	779.6
533.793	779.5
534.25	778.8
534.706	780.1
535.162	779
535.619	780.1
536.075	773.3
536.531	776.4
536.988	783.9
537.444	780.8
537.9	782.4
538.356	779.2
538.813	776.1
539.269	783.5
539.725	775.3
540.181	780.7
540.637	775.2
541.093	780.7
541.549	781.4
542.005	776.9
542.461	778.4
542.917	783.3
543.373	777
543.829	780.5
544.285	782.9
544.741	772.7
545.197	781.2
545.652	772.4
546.108	783
546.564	780.9
547.02	778.3
547.475	779.4
547.931	778.2
548.387	783.1
548.842	779.1
549.298	779.5
549.753	776.2
550.209	779.7
550.664	775.1
551.12	779.1
551.575	782
552.031	772.3
552.486	781.3
552.941	778.3
553.397	798.5
553.852	782.7
554.307	778.9
554.762	781.8
555.218	782.4
555.673	779.9
556.128	782.2
556.583	779.7
557.038	777.6
557.493	780.7
557.948	777
558.403	775.8
558.858	778.5
559.313	775.5
559.768	777.2
560.223	776.7
560.678	782.2
561.133	774.9
561.588	779.1
562.043	780.3
562.497	777.5
562.952	779.9
563.407	779.7
563.862	782.4
564.316	777.2
564.771	779.7
565.226	777.8
565.68	776.9
566.135	772.3
566.589	772
567.044	777.5
567.498	781.6
567.953	781.7
568.407	782.3
568.862	775.1
569.316	778
569.77	778.3
570.225	774.3
570.679	776.6
571.133	778.1
571.587	780.1
572.042	779.2
572.496	784.8
572.95	774.1
573.404	777.3
573.858	781
574.312	778
574.766	780
575.22	774.1
575.674	773.9
576.128	778.9
576.582	777.9
577.036	779.9
577.49	775.2
577.944	784
578.398	778.2
578.852	775.5
579.305	771.5
579.759	777.5
580.213	775.8
580.666	778.5
581.12	780.9
581.574	775.6
582.027	777.8
582.481	781
582.935	777.4
583.388	782.2
583.842	774.8
584.295	775.4
584.748	783
585.202	778.7
585.655	781.2
586.109	777.3
586.562	781.7
587.015	780.3
587.469	775.7
587.922	776
588.375	777.6
588.828	775.5
589.281	776
589.735	772.7
590.188	778.1
590.641	775.8
591.094	778.6
591.547	777.9
592	779.1
592.453	774.8
592.906	774.4
593.359	778.4
593.812	779.7
594.265	779
594.717	772.9
595.17	782.8
595.623	778.2
596.076	777
596.529	776.3
596.981	778.5
597.434	782.5
597.887	781.2
598.339	776.1
598.792	779.5
599.245	780.2
599.697	773.6
600.15	776.1
600.602	778.6
601.055	780.4
601.507	778.3
601.959	774.8
602.412	782.3
602.864	780.7
603.316	773.3
603.769	775.4
604.221	786
604.673	780.9
605.126	781.5
605.578	774.7
606.03	778.6
606.482	780.5
606.934	773.7
607.386	780.6
607.838	780
608.29	773.8
608.742	773.5
609.194	775
609.646	777.2
610.098	780.8
610.55	779.6
611.002	776.9
611.454	776.9
611.906	773
612.357	779.2
612.809	778
613.261	774.1
613.713	775.3
614.164	776.1
614.616	776.6
615.068	783
615.519	775.7
615.971	777.1
616.422	781
616.874	783
617.325	783.3
617.777	776
618.228	776.2
618.68	771.3
619.131	777.2
619.582	781.5
620.034	777.3
620.485	779.2
620.936	774.9
621.387	776.9
621.839	778.9
622.29	780.8
622.741	774.9
623.192	775
623.643	780.3
624.094	778.7
624.545	773.3
624.996	777.6
625.447	784.7
625.898	782.3
626.349	770.4
626.8	774.9
627.251	779.6
627.702	776.3
628.153	776.7
628.604	777.8
629.054	773.3
629.505	776.1
629.956	778.9
630.406	777
630.857	779.9
631.308	779.2
631.758	776.4
632.209	777.6
632.66	778.5
633.11	783.8
633.561	776.3
634.011	780.1
634.461	782.1
634.912	775.8
635.362	779.3
635.813	775.4
636.263	775.8
636.713	778.5
637.164	779
637.614	782.1
638.064	775.9
638.514	775.6
638.964	775.3
639.415	778.4
639.865	776.8
640.315	777.1
640.765	778.3
641.215	780.9
641.665	773.4
642.115	775.4
642.565	781.6
643.015	778.4
643.465	776.9
643.915	773.8
644.364	777
644.814	774.3
645.264	776.5
645.714	777.4
646.163	777.7
646.613	777.2
647.063	776
647.513	779.2
647.962	778.7
648.412	778.2
648.861	777.2
649.311	776.2
649.76	782.6
650.21	778
650.659	777.6
651.109	779.8
651.558	775.4
652.008	775.7
652.457	775.5
652.906	778.1
653.356	778.3
653.805	780.1
654.254	779.7
654.703	778.5
655.152	774.3
655.602	777.4
656.051	778.3
656.5	772.7
656.949	774.3
657.398	783.1
657.847	771.1
658.296	777.3
658.745	776.4
659.194	777.1
659.643	780.5
660.092	775.2
660.541	775.9
660.989	776.7
661.438	777.8
661.887	777.4
662.336	783.2
662.784	778.2
663.233	785.4
663.682	777.5
664.13	779.3
664.579	779.6
665.028	780.3
665.476	780.2
665.925	772.9
666.373	776.5
666.822	781.8
667.27	778.3
667.719	773.5
668.167	776.1
668.615	778.3
669.064	781.8
669.512	771.8
669.96	782.1
670.408	778.1
670.857	775.8
671.305	777.3
671.753	777.4
672.201	775.4
672.649	777.6
673.097	776.6
673.545	778.2
673.993	783.3
674.441	780.5
674.889	776.4
675.337	779.8
675.785	774.8
676.233	774.2
676.681	779.2
677.129	776.1
677.577	776
678.025	780.2
678.472	774.8
678.92	776.8
679.368	777.6
679.815	779.1
680.263	774.7
680.711	771.4
681.158	778.9
681.606	779.7
682.053	777.1
682.501	778
682.948	781.3
683.396	774.7
683.843	782.1
684.291	777.8
684.738	782.4
685.185	780.5
685.633	781
686.08	778
686.527	777.5
686.974	777.8
687.422	775.4
687.869	775.8
688.316	776.4
688.763	781.9
689.21	777.9
689.657	778.4
690.104	777.4
690.551	778
690.998	777.5
691.445	777.1
691.892	784.3
692.339	778.4
692.786	775
693.233	780.7
693.68	780.7
694.127	775.5
694.573	774.8
695.02	774.3
695.467	775.4
695.913	781.8
696.36	779
696.807	780.3
697.253	781.1
697.7	773.9
698.146	779
698.593	773.7
699.039	778.5
699.486	781.6
699.932	779
700.379	780.2
700.825	782.4
701.272	776.8
701.718	776
702.164	781.5
702.61	780.5
703.057	777.4
703.503	781.2
703.949	778.9
704.395	777.5
704.841	779.4
705.287	776.9
705.734	773.9
706.18	774.5
706.626	783.4
707.072	779.8
707.518	777.2
707.964	779.5
708.409	776.1
708.855	779.2
709.301	782.2
709.747	778.7
710.193	782.1
710.639	779.3
711.084	781.2
711.53	776.1
711.976	775.1
712.421	779.8
712.867	780.9
713.313	780.6
713.758	781.9
714.204	781.3
714.649	776.8
715.095	781.8
715.54	773.4
715.986	777.2
716.431	775.1
716.877	772
717.322	774.4
717.767	777.2
718.213	779.2
718.658	780.3
719.103	779.5
719.548	780.5
719.994	777.2
720.439	780.5
720.884	776.3
721.329	777.9
721.774	781.7
722.219	778.6
722.664	778.6
723.109	778.8
723.554	777.4
723.999	775.2
724.444	784.6
724.889	781
725.334	775.3
725.779	779.1
726.223	775.8
726.668	782.1
727.113	778.3
727.558	780
728.002	777.7
728.447	780.7
728.892	777.9
729.336	779.4
729.781	781.6
730.225	780
730.67	773.6
731.114	777.3
731.559	781.2
732.003	781.2
732.448	777.8
732.892	779.1
733.337	783.1
733.781	777
734.225	781.1
734.67	783.2
735.114	778.1
735.558	777.4
736.002	775.9
736.446	778.5
736.891	783.1
737.335	776.4
737.779	779.2
738.223	778.4
738.667	784.2
739.111	777.4
739.555	778.8
739.999	780.9
740.443	781.9
740.887	777.5
741.33	779.4
741.774	779
742.218	782.2
742.662	775.9
743.106	781.9
743.549	779.6
743.993	779.2
744.437	772.2
744.88	779.2
745.324	774.5
745.768	778.2
746.211	781.7
746.655	778.6
747.098	781.5
747.542	779.7
747.985	778.7
748.429	778.4
748.872	778.2
749.315	778.5
749.759	785.2
750.202	778.4
750.645	775.7
751.089	776.7
751.532	776.1
751.975	775.3
752.418	783.2
752.861	777.4
753.305	778.5
753.748	777.2
754.191	781.5
754.634	781.4
755.077	777.3
755.52	782.9
755.963	778.7
756.406	780.5
756.849	777.2
757.291	780.5
757.734	780.7
758.177	775.6
758.62	779.9
759.063	780.5
759.505	780.9
759.948	777.4
760.391	782.2
760.833	774.7
761.276	775.9
761.719	778.3
762.161	778.6
762.604	780.6
763.046	780.8
763.489	778
763.931	783.7
764.374	781.6
764.816	777.8
765.258	778
765.701	775.8
766.143	776.5
766.585	782.2
767.028	780.2
767.47	777.1
767.912	779.2
768.354	780.7
768.796	780.8
769.238	781.2
769.681	774.2
770.123	780
770.565	782.6
771.007	779.3
771.449	778.3
771.891	778.5
772.333	776.7
772.774	777.8
773.216	781.8
773.658	777.3
774.1	777.3
774.542	781.6
774.984	781.2
775.425	776.6
775.867	783.3
776.309	779
776.75	775.5
777.192	782.8
777.634	779.6
778.075	782.3
778.517	781.7
778.958	775.3
779.4	784.7
779.841	777.7
780.283	774.7
780.724	783.2
781.165	783.3
781.607	781.5
782.048	779
782.489	776.5
782.931	782.8
783.372	785.2
783.813	774.2
784.254	777.5
784.695	781.9
785.136	785.4
785.578	778.6
786.019	777.7
786.46	778.6
786.901	775.7
787.342	774.8
787.783	778.4
788.224	780.4
788.664	783.7
789.105	783.1
789.546	771.1
789.987	780.9
790.428	784.5
790.869	778.1
791.309	781.4
791.75	778.2
792.191	778
792.631	783.2
793.072	777.8
793.513	782.3
793.953	780.6
794.394	778.2
794.834	782.5
795.275	778.2
795.715	781.5
796.156	777.4
796.596	775
797.036	781.1
797.477	783.7
797.917	777
798.357	782.3
798.798	779.9
799.238	778.4
799.678	781
800.118	784.3
800.558	774.3
