节点UV_HRD08281_00007.txt的数据
Date: Wed Jan 15 10:30:47 CST 2020
User: lab329
Spectrometer: HR+D0828
触发模式: 0
积分时间 (秒): 2.000000E-2
Scans to average: 10
启用暗噪声校正: false
启用非线性校正: false
滑动平均宽度: 0
X轴模式: Wavelengths
Number of Pixels in Spectrum: 2048
>>>>>Begin Spectral Data<<<<<
186.281	776.9
186.758	776.9
187.234	776.9
187.71	784.7
188.187	781.1
188.663	782.5
189.139	782.8
189.615	784.4
190.091	774.2
190.567	778.4
191.043	779.1
191.519	784.3
191.995	782.7
192.471	780.2
192.947	779.6
193.423	783.1
193.899	780.3
194.375	784.7
194.851	784.3
195.327	784.2
195.803	779.7
196.278	782.8
196.754	783.8
197.23	782.7
197.706	777.7
198.181	775.8
198.657	777.6
199.133	787
199.608	780.6
200.084	777.4
200.559	785.1
201.035	783.3
201.51	781.3
201.986	785.8
202.461	783.1
202.937	783.4
203.412	782.8
203.887	777.3
204.363	787.6
204.838	782.3
205.313	779.3
205.789	780.5
206.264	782.3
206.739	778.7
207.214	779.3
207.689	775
208.165	782.2
208.64	775.2
209.115	776.8
209.59	776.7
210.065	790.1
210.54	781
211.015	774.9
211.49	781.3
211.965	787.6
212.44	781.1
212.914	776.9
213.389	777.2
213.864	779.7
214.339	777.1
214.814	778.7
215.288	778.8
215.763	781.9
216.238	778.6
216.712	776.8
217.187	782.7
217.662	783.4
218.136	778.8
218.611	782.2
219.085	779.3
219.56	783
220.034	774.8
220.509	783.9
220.983	781.3
221.458	784.2
221.932	775
222.406	778.6
222.881	786.3
223.355	778.4
223.829	775.5
224.303	777.6
224.778	783.6
225.252	783.3
225.726	777.8
226.2	780.2
226.674	782.5
227.148	782.4
227.622	773.9
228.096	778.7
228.57	785.8
229.044	782.2
229.518	778.1
229.992	783.8
230.466	812.8
230.94	780.4
231.414	776.7
231.888	773.5
232.361	782.6
232.835	777.7
233.309	777
233.783	779.6
234.256	784.6
234.73	776.2
235.204	775.9
235.677	783.3
236.151	786.9
236.624	780.4
237.098	772.8
237.571	784.6
238.045	784
238.518	780.7
238.992	776.9
239.465	778.8
239.939	782.5
240.412	777.9
240.885	778.8
241.359	785.7
241.832	782.5
242.305	778.1
242.778	778.7
243.251	783.7
243.725	780.4
244.198	778.5
244.671	778.3
245.144	782.2
245.617	779.5
246.09	776.8
246.563	780
247.036	780.8
247.509	780.8
247.982	779.4
248.455	776.8
248.928	780.3
249.4	777.4
249.873	776.8
250.346	783.9
250.819	785.7
251.292	776
251.764	778.8
252.237	783.9
252.71	788.5
253.182	774.9
253.655	775.8
254.127	783
254.6	786.9
255.073	791.1
255.545	774.4
256.018	779.5
256.49	784.9
256.962	782
257.435	776.4
257.907	786.5
258.379	785.5
258.852	779.2
259.324	781.6
259.796	784.6
260.269	782.6
260.741	782.2
261.213	781.5
261.685	785.9
262.157	781.3
262.629	779.5
263.101	780.2
263.574	782.5
264.046	777.6
264.518	778
264.99	782.6
265.461	782
265.933	782.4
266.405	777.5
266.877	783.9
267.349	783.6
267.821	783.5
268.293	781.5
268.764	781.7
269.236	788.3
269.708	776.9
270.18	776.9
270.651	784
271.123	783.5
271.594	781.2
272.066	779
272.538	782.2
273.009	786.5
273.481	778.9
273.952	777
274.423	783.3
274.895	783.1
275.366	775.6
275.838	784.2
276.309	783.6
276.78	784.7
277.252	774.5
277.723	782.1
278.194	781.1
278.665	780.9
279.136	775.2
279.608	785.6
280.079	789.2
280.55	784
281.021	778.6
281.492	780.2
281.963	780.4
282.434	781.6
282.905	775.6
283.376	782.5
283.847	782.8
284.318	778.7
284.789	780.6
285.259	784.3
285.73	781.9
286.201	784
286.672	777.3
287.143	787.9
287.613	784
288.084	780.8
288.555	783.3
289.025	785.7
289.496	786
289.966	779.9
290.437	779.6
290.907	785.5
291.378	782.3
291.848	778.9
292.319	778.3
292.789	786.3
293.26	780.8
293.73	778.4
294.2	780.7
294.671	781.8
295.141	781.8
295.611	783.2
296.081	778.7
296.552	782.1
297.022	777.1
297.492	782.6
297.962	780.3
298.432	779
298.902	781.7
299.372	773.5
299.842	786.6
300.312	785.8
300.782	786.7
301.252	781.8
301.722	778
302.192	783.4
302.662	784.4
303.132	782.3
303.602	788.8
304.071	781.1
304.541	780.9
305.011	779.4
305.481	783.2
305.95	786.8
306.42	778.8
306.889	776.4
307.359	780.2
307.829	785.2
308.298	779.4
308.768	778
309.237	784.6
309.707	784
310.176	779.5
310.645	780.2
311.115	786.8
311.584	780.7
312.054	780.2
312.523	781.5
312.992	791.6
313.461	778.2
313.931	775
314.4	785.2
314.869	784.5
315.338	784.5
315.807	776.6
316.276	780.8
316.745	784
317.214	780.4
317.683	784.5
318.152	783.2
318.621	781.7
319.09	780
319.559	779.4
320.028	782.8
320.497	783.2
320.966	781.7
321.435	779.3
321.903	786.8
322.372	782.3
322.841	778.6
323.31	784
323.778	783.5
324.247	780.5
324.715	779.4
325.184	787.1
325.653	786.1
326.121	784.4
326.59	779.7
327.058	780.9
327.527	783.7
327.995	781.2
328.463	781.7
328.932	780.2
329.4	783.2
329.868	778.8
330.337	781.6
330.805	778.9
331.273	785.8
331.741	785.6
332.21	771.5
332.678	780.5
333.146	788.8
333.614	781.8
334.082	783.5
334.55	782.9
335.018	786.3
335.486	786.9
335.954	777.6
336.422	782.5
336.89	783.7
337.358	780.9
337.826	784.1
338.294	783
338.762	786.6
339.229	779.7
339.697	781.9
340.165	787.6
340.633	786.7
341.1	782.9
341.568	780.6
342.035	788.1
342.503	783.4
342.971	782.3
343.438	781.2
343.906	784.4
344.373	783.4
344.841	777.4
345.308	781.5
345.776	785.5
346.243	783.2
346.71	779
347.178	783.2
347.645	787
348.112	780.1
348.58	783.1
349.047	787.4
349.514	790.2
349.981	785
350.448	781.9
350.915	781
351.383	784.6
351.85	783.7
352.317	787.1
352.784	784.8
353.251	786.8
353.718	778
354.185	786.3
354.651	783.7
355.118	786
355.585	785.7
356.052	783.8
356.519	788.4
356.986	781.9
357.452	782.3
357.919	784.6
358.386	786.8
358.853	788.8
359.319	786.9
359.786	790.7
360.252	793.1
360.719	786.4
361.185	788.1
361.652	790.8
362.118	797.6
362.585	792.7
363.051	793.5
363.518	794.5
363.984	804
364.451	804.9
364.917	800.1
365.383	806.4
365.849	810.2
366.316	807.2
366.782	805.1
367.248	807.6
367.714	811.2
368.18	813
368.647	814.6
369.113	819
369.579	826.3
370.045	825.5
370.511	827.8
370.977	845.7
371.443	852.3
371.909	875.5
372.374	901.3
372.84	980
373.306	1077
373.772	1242.5
374.238	1498
374.704	1883.9
375.169	2422.5
375.635	3156.2
376.101	4160.1
376.566	5376.7
377.032	6833
377.498	8553
377.963	10210.5
378.429	11488.9
378.894	12587.4
379.36	13379.1
379.825	13974
380.291	14253.9
380.756	14443.5
381.222	14271.9
381.687	13823.3
382.152	12977.4
382.618	11694.4
383.083	10286.8
383.548	8659.6
384.013	7044.1
384.479	5597.1
384.944	4330
385.409	3401.7
385.874	2679.5
386.339	2143.5
386.804	1767.5
387.269	1482.6
387.734	1282.3
388.199	1152.3
388.664	1050.7
389.129	976.5
389.594	935.6
390.059	897.7
390.524	885.5
390.989	876.3
391.453	867.5
391.918	853.5
392.383	852.8
392.848	850.4
393.312	848.8
393.777	847.3
394.242	838.9
394.706	843.3
395.171	840.8
395.635	834
396.1	829.3
396.565	831
397.029	826.7
397.493	823.1
397.958	816.9
398.422	825.8
398.887	811.9
399.351	810
399.815	815
400.28	814.8
400.744	805.7
401.208	799.2
401.672	802.1
402.137	800
402.601	798.2
403.065	792
403.529	793.3
403.993	787.5
404.457	791.6
404.921	787.9
405.385	792.1
405.849	790.6
406.313	790.3
406.777	786.5
407.241	789.8
407.705	790.8
408.169	784.2
408.632	786.4
409.096	788.1
409.56	787.1
410.024	781.4
410.487	784.3
410.951	786.5
411.415	786.2
411.878	781.4
412.342	781.6
412.806	782.5
413.269	776.3
413.733	780.6
414.196	785.4
414.66	787.5
415.123	785.1
415.587	780.6
416.05	785.5
416.513	783.2
416.977	778.1
417.44	779.3
417.903	779.3
418.366	783.3
418.83	779.1
419.293	782.5
419.756	784.9
420.219	782.2
420.682	783.7
421.145	774.7
421.608	781.7
422.072	785.4
422.535	783.9
422.998	781.6
423.46	787.2
423.923	785.3
424.386	782.3
424.849	780
425.312	787.3
425.775	779.9
426.238	779.9
426.7	775.5
427.163	788.3
427.626	783.9
428.089	778.5
428.551	775.1
429.014	783.9
429.477	783.5
429.939	780
430.402	782.8
430.864	781.3
431.327	781
431.789	779.4
432.252	781.7
432.714	787.7
433.176	782.5
433.639	775.3
434.101	785.7
434.563	785.6
435.026	778.4
435.488	780.2
435.95	780
436.412	783.6
436.875	779
437.337	775.6
437.799	784.1
438.261	783.2
438.723	778.4
439.185	780.2
439.647	786
440.109	783.9
440.571	785.2
441.033	776.9
441.495	781.2
441.957	780.1
442.419	777.2
442.881	777.7
443.342	775.9
443.804	785.9
444.266	783.3
444.728	777.6
445.189	780.4
445.651	782.2
446.113	780.2
446.574	781.2
447.036	784.6
447.497	780.3
447.959	781.4
448.421	782.3
448.882	783.5
449.343	781.2
449.805	774.3
450.266	782.5
450.728	781.7
451.189	776
451.65	780.6
452.112	781.1
452.573	780.8
453.034	778
453.495	774.3
453.957	784.6
454.418	782.2
454.879	775.1
455.34	782.7
455.801	783
456.262	785.6
456.723	782.4
457.184	779.3
457.645	786.7
458.106	783.1
458.567	778.5
459.028	780.3
459.489	780.3
459.95	783.1
460.41	782.8
460.871	779.3
461.332	778.6
461.793	777.2
462.253	773.6
462.714	772.7
463.175	779.2
463.635	780.3
464.096	778.4
464.556	776.6
465.017	781.4
465.478	781
465.938	778.1
466.398	779.9
466.859	782.8
467.319	781
467.78	783.1
468.24	778
468.7	780.3
469.161	779.7
469.621	773.3
470.081	776.6
470.541	780
471.002	777.7
471.462	774.9
471.922	784.3
472.382	784.2
472.842	779.7
473.302	777.9
473.762	786.7
474.222	774.9
474.682	778.1
475.142	777.5
475.602	780.2
476.062	781.9
476.522	778.6
476.982	777.7
477.442	782.2
477.901	781.7
478.361	778.1
478.821	777.9
479.281	779.5
479.74	779.8
480.2	779.3
480.659	780.2
481.119	786.3
481.579	779.1
482.038	776.5
482.498	778.7
482.957	780.5
483.417	774.3
483.876	771.3
484.336	772.7
484.795	775.7
485.254	778.9
485.714	775.2
486.173	779.3
486.632	779.5
487.091	781.2
487.551	776.1
488.01	777.8
488.469	782.9
488.928	775.2
489.387	777.9
489.846	786.3
490.305	779.8
490.764	780.8
491.223	774.3
491.682	784.6
492.141	779.2
492.6	774.2
493.059	775.7
493.518	789.6
493.977	781.2
494.436	780.3
494.895	781.2
495.353	781.4
495.812	781
496.271	773.6
496.729	778.1
497.188	779.6
497.647	777.4
498.105	778.4
498.564	778.5
499.022	781.2
499.481	778
499.939	774.5
500.398	777
500.856	785.8
501.315	777.9
501.773	773.5
502.232	773.1
502.69	781.5
503.148	777.5
503.606	775.2
504.065	780.9
504.523	780
504.981	781.5
505.439	769.5
505.897	776.9
506.356	782.4
506.814	777.1
507.272	776.6
507.73	779.7
508.188	780.7
508.646	776.9
509.104	771.9
509.562	778.8
510.02	779.1
510.477	772.8
510.935	774.3
511.393	781.8
511.851	780.4
512.309	778.2
512.766	775.4
513.224	781.3
513.682	774.4
514.139	772.7
514.597	781.4
515.055	783.8
515.512	777.3
515.97	776.1
516.427	776.7
516.885	783.6
517.342	779.6
517.8	778.4
518.257	783.5
518.714	784.6
519.172	770.2
519.629	775.4
520.086	774.9
520.544	780.9
521.001	772.5
521.458	772.8
521.915	776.9
522.373	781.9
522.83	779.1
523.287	780
523.744	781.4
524.201	778
524.658	770
525.115	778.3
525.572	783.2
526.029	776
526.486	774.6
526.943	775.9
527.4	780.6
527.857	780.2
528.313	779
528.77	778.8
529.227	779.2
529.684	777.5
530.14	773.2
530.597	779.7
531.054	783.3
531.51	774.9
531.967	773.5
532.423	774.4
532.88	781.1
533.337	779.7
533.793	770.8
534.25	773.8
534.706	779.1
535.162	776.8
535.619	775.1
536.075	775.8
536.531	780.9
536.988	779
537.444	775.6
537.9	777.8
538.356	778.9
538.813	779.9
539.269	782.5
539.725	781.1
540.181	778.9
540.637	772.9
541.093	775.1
541.549	782.1
542.005	780
542.461	776.2
542.917	774.4
543.373	780.2
543.829	779.6
544.285	771.6
544.741	774.4
545.197	782.9
545.652	773
546.108	772.4
546.564	772.3
547.02	777.7
547.475	778
547.931	778.6
548.387	773.7
548.842	781.7
549.298	778.1
549.753	774.6
550.209	782
550.664	786.7
551.12	774.9
551.575	775.9
552.031	777.7
552.486	776.5
552.941	774.5
553.397	780.1
553.852	779.2
554.307	780.6
554.762	775.6
555.218	777.2
555.673	779.8
556.128	778.5
556.583	773.4
557.038	769.5
557.493	776.4
557.948	778.7
558.403	772.9
558.858	774.7
559.313	779.3
559.768	779.8
560.223	775.8
560.678	780.5
561.133	781.8
561.588	779.5
562.043	778.9
562.497	778.4
562.952	782.5
563.407	779
563.862	777.2
564.316	772.9
564.771	779.2
565.226	777.7
565.68	770.5
566.135	773.1
566.589	783.1
567.044	773.3
567.498	777.5
567.953	778.4
568.407	776.8
568.862	772.6
569.316	776.8
569.77	775.8
570.225	782.7
570.679	778.7
571.133	773.9
571.587	774.4
572.042	781.7
572.496	777.7
572.95	778.3
573.404	776.8
573.858	778.1
574.312	774.4
574.766	774
575.22	777.9
575.674	778
576.128	773.4
576.582	775.7
577.036	776.6
577.49	775.2
577.944	771.8
578.398	773.4
578.852	777.5
579.305	780.8
579.759	774.4
580.213	779.9
580.666	781.3
581.12	778.2
581.574	771.2
582.027	775
582.481	780.1
582.935	777.3
583.388	771.3
583.842	775.6
584.295	774.8
584.748	778.5
585.202	775.6
585.655	776.3
586.109	780.7
586.562	775.3
587.015	775.2
587.469	779.9
587.922	782.2
588.375	773.3
588.828	777.3
589.281	778
589.735	778.8
590.188	778.2
590.641	773.9
591.094	778.9
591.547	779.1
592	770.5
592.453	774.9
592.906	778.2
593.359	775.5
593.812	770.2
594.265	773.9
594.717	780
595.17	773.7
595.623	775.6
596.076	778.6
596.529	778
596.981	771.6
597.434	777.3
597.887	778.8
598.339	777.6
598.792	776.7
599.245	773.8
599.697	775.4
600.15	776.9
600.602	776.9
601.055	772.5
601.507	776.2
601.959	777
602.412	773.7
602.864	773.9
603.316	778.7
603.769	775
604.221	773.1
604.673	770.9
605.126	778.1
605.578	781.9
606.03	774.1
606.482	772
606.934	776.2
607.386	777
607.838	779.5
608.29	775.7
608.742	777.2
609.194	778.6
609.646	774.5
610.098	775.3
610.55	779
611.002	780.4
611.454	771.1
611.906	774.7
612.357	777.2
612.809	777
613.261	774.4
613.713	777
614.164	776.5
614.616	769.7
615.068	774.6
615.519	778.7
615.971	780
616.422	775.6
616.874	770.4
617.325	778.2
617.777	777.5
618.228	775.3
618.68	777.4
619.131	775.2
619.582	779.6
620.034	773
620.485	776.7
620.936	779
621.387	777.1
621.839	777
622.29	778.7
622.741	783.7
623.192	778.7
623.643	777.5
624.094	776.3
624.545	779.5
624.996	775.3
625.447	773
625.898	775.7
626.349	774.1
626.8	778
627.251	773.3
627.702	770.7
628.153	780.3
628.604	780.3
629.054	778.6
629.505	778.1
629.956	782.9
630.406	774.5
630.857	774.2
631.308	776.9
631.758	780.2
632.209	776.2
632.66	775.7
633.11	775.2
633.561	777.9
634.011	781
634.461	774.7
634.912	778.7
635.362	779.3
635.813	776.3
636.263	774.4
636.713	779.8
637.164	778.6
637.614	778.5
638.064	774.3
638.514	776.6
638.964	778.4
639.415	773.7
639.865	774.2
640.315	783.8
640.765	775.9
641.215	773.1
641.665	772.5
642.115	777.1
642.565	779.9
643.015	774.6
643.465	777.5
643.915	781.6
644.364	776.5
644.814	780.2
645.264	773.9
645.714	774
646.163	776.5
646.613	772.9
647.063	774.5
647.513	783.3
647.962	775.5
648.412	773.5
648.861	780.2
649.311	781.1
649.76	776.3
650.21	776.2
650.659	781.1
651.109	785
651.558	775.6
652.008	770.1
652.457	781.5
652.906	779.4
653.356	772.4
653.805	776.5
654.254	777.8
654.703	781.9
655.152	767.9
655.602	768.1
656.051	778.7
656.5	781.8
656.949	777.5
657.398	774.4
657.847	778.7
658.296	775.9
658.745	774.4
659.194	775.1
659.643	779.6
660.092	775.2
660.541	775
660.989	777.4
661.438	783.4
661.887	775.2
662.336	778.6
662.784	775.3
663.233	781.5
663.682	774.2
664.13	774.1
664.579	777
665.028	784.7
665.476	775.6
665.925	773
666.373	779
666.822	779.4
667.27	778.9
667.719	777.2
668.167	780.7
668.615	777.6
669.064	778.4
669.512	779.6
669.96	779.2
670.408	776.2
670.857	775.6
671.305	774.8
671.753	778.5
672.201	779.1
672.649	773.6
673.097	774.8
673.545	776.6
673.993	780.7
674.441	780.8
674.889	774.6
675.337	777.3
675.785	776.8
676.233	775
676.681	775.2
677.129	780.4
677.577	779
678.025	772.3
678.472	776.3
678.92	782
679.368	775.9
679.815	773
680.263	781.6
680.711	780.4
681.158	778.4
681.606	777.2
682.053	778.7
682.501	779.5
682.948	777.9
683.396	776.7
683.843	778.8
684.291	779.9
684.738	775
685.185	779.9
685.633	774.8
686.08	783.4
686.527	775.6
686.974	772.5
687.422	778.8
687.869	779.3
688.316	777.3
688.763	773.2
689.21	777.9
689.657	778.1
690.104	774.2
690.551	775
690.998	781.1
691.445	781.3
691.892	773.5
692.339	773.8
692.786	782.7
693.233	780.5
693.68	777.9
694.127	777.9
694.573	778.9
695.02	778.3
695.467	775.2
695.913	783.7
696.36	776.2
696.807	774.3
697.253	776.4
697.7	774.4
698.146	774.6
698.593	771.1
699.039	774.7
699.486	777.8
699.932	778.1
700.379	778.7
700.825	778
701.272	777
701.718	774.3
702.164	776.4
702.61	773.7
703.057	779.5
703.503	774.3
703.949	779.9
704.395	778.7
704.841	775.8
705.287	781.3
705.734	774.9
706.18	774.5
706.626	780.3
707.072	781.7
707.518	771.6
707.964	778.5
708.409	777.7
708.855	777.6
709.301	775.8
709.747	771.8
710.193	778.6
710.639	779
711.084	777.3
711.53	778.1
711.976	786.2
712.421	778.7
712.867	779.1
713.313	778.5
713.758	782.9
714.204	772.4
714.649	771.7
715.095	779.8
715.54	779.1
715.986	777
716.431	772.2
716.877	778.9
717.322	784.3
717.767	775.8
718.213	768.3
718.658	781
719.103	780.6
719.548	771.8
719.994	775.6
720.439	780.1
720.884	778.1
721.329	775.5
721.774	772.7
722.219	779
722.664	775.2
723.109	778.6
723.554	775.8
723.999	777
724.444	779.5
724.889	770.3
725.334	768.6
725.779	776.6
726.223	777.3
726.668	775.5
727.113	778.5
727.558	776.4
728.002	779.7
728.447	776.2
728.892	781.1
729.336	775.5
729.781	778.6
730.225	774.5
730.67	784.2
731.114	782.1
731.559	779.1
732.003	774.5
732.448	778.4
732.892	781.8
733.337	772.6
733.781	775.9
734.225	785.3
734.67	781.4
735.114	778.1
735.558	773.6
736.002	776.5
736.446	777
736.891	775.3
737.335	774.2
737.779	784.2
738.223	777.5
738.667	774.5
739.111	778.9
739.555	783.5
739.999	781
740.443	775.6
740.887	774.8
741.33	778.2
741.774	777.6
742.218	774.1
742.662	778.3
743.106	778.5
743.549	774.7
743.993	777.7
744.437	779
744.88	778.8
745.324	780.2
745.768	771.9
746.211	781.2
746.655	777.2
747.098	771.8
747.542	778
747.985	777.7
748.429	783.5
748.872	777.7
749.315	776.4
749.759	780.7
750.202	779.1
750.645	775.7
751.089	772.1
751.532	783.7
751.975	779.3
752.418	776.3
752.861	773.8
753.305	784.9
753.748	776.2
754.191	780.4
754.634	774.9
755.077	776.6
755.52	777.2
755.963	768.6
756.406	781.6
756.849	785.3
757.291	783.1
757.734	777.9
758.177	773.7
758.62	780.3
759.063	778.4
759.505	775.2
759.948	781.8
760.391	781.5
760.833	778.8
761.276	776.4
761.719	778.2
762.161	779
762.604	777.7
763.046	774.5
763.489	777.7
763.931	783.2
764.374	776.1
764.816	777.9
765.258	780.3
765.701	781.4
766.143	772.6
766.585	776.6
767.028	779.9
767.47	776.2
767.912	777.4
768.354	774.4
768.796	781.9
769.238	779.6
769.681	771.6
770.123	776.5
770.565	775
771.007	781.6
771.449	775.4
771.891	777
772.333	781.1
772.774	781.1
773.216	774
773.658	778.7
774.1	780.2
774.542	778.5
774.984	777.7
775.425	778.4
775.867	782.7
776.309	778
776.75	777
777.192	778.6
777.634	779.5
778.075	775.6
778.517	776.3
778.958	777.2
779.4	778.8
779.841	776.6
780.283	771.6
780.724	781.3
781.165	780.3
781.607	776
782.048	775.6
782.489	781
782.931	781.6
783.372	779.1
783.813	775.7
784.254	780.5
784.695	777.7
785.136	781.1
785.578	773.2
786.019	778.1
786.46	781.4
786.901	774.3
787.342	776.7
787.783	783.4
788.224	775
788.664	775.9
789.105	775.5
789.546	782.1
789.987	780.1
790.428	775.5
790.869	778.4
791.309	777.8
791.75	774.6
792.191	777.1
792.631	775.3
793.072	781.8
793.513	782.4
793.953	779.4
794.394	775.5
794.834	781.2
795.275	775.1
795.715	774.3
796.156	777.6
796.596	782.5
797.036	777.7
797.477	777.4
797.917	779.4
798.357	780.8
798.798	774.2
799.238	775.1
799.678	778.5
