节点UV_HRD08281_00001.txt的数据
Date: Wed Jan 15 10:23:11 CST 2020
User: lab329
Spectrometer: HR+D0828
触发模式: 0
积分时间 (秒): 4.000000E-1
Scans to average: 10
启用暗噪声校正: false
启用非线性校正: false
滑动平均宽度: 0
X轴模式: Wavelengths
Number of Pixels in Spectrum: 2048
>>>>>Begin Spectral Data<<<<<
186.281	784.2
186.758	784.2
187.234	784.2
187.71	781.8
188.187	776.2
188.663	795.1
189.139	786.2
189.615	788.3
190.091	790.3
190.567	792.6
191.043	792.4
191.519	800.8
191.995	793.2
192.471	797.8
192.947	799.9
193.423	791.5
193.899	789.2
194.375	794.5
194.851	794.9
195.327	791.6
195.803	790.3
196.278	874.8
196.754	801.2
197.23	796.3
197.706	794.7
198.181	807.1
198.657	789.2
199.133	788
199.608	793.2
200.084	789.7
200.559	791
201.035	799.4
201.51	786.6
201.986	788.6
202.461	780.2
202.937	789.6
203.412	799.2
203.887	792.3
204.363	788.2
204.838	787.9
205.313	789.6
205.789	786.9
206.264	789.8
206.739	788.2
207.214	793.3
207.689	791.8
208.165	783.9
208.64	794.3
209.115	792.4
209.59	787.2
210.065	795.6
210.54	793.2
211.015	784.2
211.49	784.5
211.965	791.7
212.44	790.5
212.914	786.2
213.389	783.4
213.864	783
214.339	788.8
214.814	784.4
215.288	787
215.763	790.7
216.238	785.3
216.712	788.3
217.187	788
217.662	794.7
218.136	789.1
218.611	780.3
219.085	796.4
219.56	786.1
220.034	787.9
220.509	787.6
220.983	785.4
221.458	790.7
221.932	792.6
222.406	787.2
222.881	785.4
223.355	785.4
223.829	783.4
224.303	790.6
224.778	791.9
225.252	787.7
225.726	790
226.2	788.1
226.674	803.8
227.148	790.6
227.622	784.5
228.096	784.1
228.57	785.1
229.044	780.3
229.518	789.6
229.992	832.4
230.466	1144.2
230.94	821
231.414	792.5
231.888	784.7
232.361	778.6
232.835	784.2
233.309	785.4
233.783	784.3
234.256	785.9
234.73	791.8
235.204	786.9
235.677	792
236.151	784.2
236.624	787.1
237.098	789.4
237.571	790.8
238.045	787.8
238.518	791.2
238.992	788.1
239.465	789.6
239.939	793.5
240.412	789.3
240.885	787
241.359	794.3
241.832	786.4
242.305	790.7
242.778	782.6
243.251	789.2
243.725	786.4
244.198	780.4
244.671	791.1
245.144	791.4
245.617	792.3
246.09	788
246.563	789.8
247.036	786.4
247.509	791.4
247.982	791.5
248.455	792.7
248.928	787.4
249.4	783.5
249.873	788.1
250.346	794.6
250.819	783.3
251.292	792.4
251.764	786.5
252.237	791.8
252.71	785.4
253.182	785.6
253.655	801.5
254.127	786.2
254.6	787.7
255.073	1029.9
255.545	806.9
256.018	790.2
256.49	792.7
256.962	783.9
257.435	792
257.907	784.9
258.379	786.4
258.852	792.2
259.324	788.2
259.796	790.1
260.269	789
260.741	782.9
261.213	789.2
261.685	782.2
262.157	786.1
262.629	792.6
263.101	785.5
263.574	779.4
264.046	787.3
264.518	785.5
264.99	793.3
265.461	786.9
265.933	787.8
266.405	791.1
266.877	786.1
267.349	786.7
267.821	792.8
268.293	790.3
268.764	795.2
269.236	784.1
269.708	790.4
270.18	793.5
270.651	792
271.123	793.7
271.594	792.1
272.066	785.1
272.538	818.9
273.009	797.4
273.481	794
273.952	789.8
274.423	783.6
274.895	790.9
275.366	802
275.838	790.2
276.309	788.6
276.78	785.8
277.252	782.8
277.723	789.9
278.194	789.6
278.665	791.5
279.136	790.8
279.608	780
280.079	784.3
280.55	785.2
281.021	786.1
281.492	788.6
281.963	786.5
282.434	790.5
282.905	791.5
283.376	789
283.847	786.1
284.318	794.6
284.789	789.6
285.259	793.8
285.73	793.4
286.201	783.9
286.672	786.3
287.143	792.1
287.613	790.2
288.084	788.3
288.555	787.8
289.025	786.7
289.496	790.8
289.966	785.1
290.437	787.6
290.907	797.6
291.378	791.9
291.848	786.2
292.319	789.1
292.789	793.9
293.26	788.1
293.73	790.4
294.2	788.2
294.671	785.8
295.141	791.4
295.611	791.4
296.081	780.8
296.552	790.5
297.022	792.1
297.492	789.2
297.962	793.3
298.432	788.4
298.902	782.6
299.372	792.5
299.842	798.5
300.312	786.6
300.782	790.2
301.252	785.4
301.722	789.3
302.192	793.4
302.662	782.2
303.132	789.3
303.602	784.1
304.071	794.5
304.541	789.5
305.011	787.2
305.481	784.1
305.95	786.6
306.42	784.2
306.889	789.7
307.359	791
307.829	786.4
308.298	788.1
308.768	787.7
309.237	785.7
309.707	788.9
310.176	791.7
310.645	788.6
311.115	792
311.584	781.3
312.054	792.2
312.523	786
312.992	789.3
313.461	788.9
313.931	788.9
314.4	795.6
314.869	786.5
315.338	785.6
315.807	786.9
316.276	781.1
316.745	783.9
317.214	788.4
317.683	790.6
318.152	790.5
318.621	789.2
319.09	790.8
319.559	794.9
320.028	788.2
320.497	787.6
320.966	785.5
321.435	783.1
321.903	787.6
322.372	782.6
322.841	791.9
323.31	793.1
323.778	787.1
324.247	785
324.715	789.8
325.184	794.8
325.653	794.8
326.121	784.8
326.59	789.8
327.058	792.5
327.527	795.8
327.995	793.1
328.463	793.8
328.932	792.9
329.4	798.1
329.868	793.4
330.337	790.7
330.805	805.8
331.273	793.2
331.741	788.7
332.21	799.9
332.678	794.9
333.146	795.6
333.614	796.6
334.082	800.9
334.55	801.8
335.018	800.9
335.486	798.2
335.954	799.6
336.422	804.3
336.89	793.3
337.358	800.1
337.826	802.4
338.294	807.8
338.762	808.1
339.229	816.9
339.697	815.7
340.165	810.6
340.633	815.2
341.1	814.1
341.568	814.8
342.035	823.6
342.503	823.7
342.971	826
343.438	842.5
343.906	859.2
344.373	889.8
344.841	977.3
345.308	1114.1
345.776	1362.5
346.243	1764.9
346.71	2379.1
347.178	3325.4
347.645	4497
348.112	5855
348.58	7261.8
349.047	8531.7
349.514	9319.3
349.981	9614.4
350.448	9480.4
350.915	8836.7
351.383	7793.2
351.85	6554.6
352.317	5222.3
352.784	4088.3
353.251	3156
353.718	2404.5
354.185	1880.1
354.651	1515.1
355.118	1275.7
355.585	1139
356.052	1058.9
356.519	984.7
356.986	951.2
357.452	938.2
357.919	925.2
358.386	914
358.853	909.8
359.319	906.2
359.786	911.7
360.252	906.7
360.719	906.8
361.185	903.6
361.652	900.2
362.118	899.3
362.585	901.6
363.051	895.6
363.518	890.7
363.984	891.1
364.451	892.5
364.917	891.9
365.383	888.9
365.849	894.4
366.316	881.6
366.782	883.6
367.248	880.2
367.714	877.7
368.18	879.3
368.647	884.2
369.113	881.7
369.579	874.8
370.045	879.7
370.511	883.7
370.977	877.7
371.443	871.9
371.909	874.4
372.374	873.2
372.84	864.7
373.306	871.4
373.772	877.9
374.238	869.7
374.704	863.6
375.169	860.3
375.635	867.9
376.101	870.2
376.566	856.1
377.032	854.3
377.498	857.5
377.963	855.2
378.429	858.3
378.894	853.4
379.36	848.9
379.825	851.4
380.291	846.2
380.756	852.7
381.222	860.7
381.687	847.7
382.152	850
382.618	856.4
383.083	855.3
383.548	859.1
384.013	846.6
384.479	846.3
384.944	847.5
385.409	841.4
385.874	838
386.339	843
386.804	845.6
387.269	843
387.734	836.1
388.199	829.2
388.664	834.5
389.129	832.7
389.594	823.4
390.059	834.5
390.524	834.1
390.989	836
391.453	835.6
391.918	829.2
392.383	825.9
392.848	830.7
393.312	833.3
393.777	828.5
394.242	826.1
394.706	835.4
395.171	825.9
395.635	824.6
396.1	823.5
396.565	826.3
397.029	821.6
397.493	822
397.958	822.6
398.422	817.3
398.887	824.4
399.351	818.2
399.815	815.7
400.28	819.2
400.744	810.5
401.208	822.1
401.672	814.4
402.137	815.2
402.601	813
403.065	813
403.529	813.2
403.993	814.4
404.457	812.4
404.921	812
405.385	821.1
405.849	812.3
406.313	820.4
406.777	810
407.241	817.5
407.705	819.7
408.169	816.4
408.632	815.6
409.096	814.2
409.56	809.4
410.024	816.8
410.487	810.8
410.951	817.9
411.415	817
411.878	807
412.342	814.9
412.806	807.6
413.269	811.8
413.733	810
414.196	808.6
414.66	816.8
415.123	809.3
415.587	809
416.05	810.2
416.513	816.1
416.977	810.1
417.44	813.3
417.903	806.5
418.366	805.1
418.83	814
419.293	818.7
419.756	814
420.219	810
420.682	810.7
421.145	814.3
421.608	806
422.072	805.4
422.535	813.1
422.998	808
423.46	810.7
423.923	807
424.386	806.9
424.849	811.9
425.312	814.8
425.775	808.7
426.238	816.7
426.7	816.1
427.163	808.8
427.626	808
428.089	815.9
428.551	812.5
429.014	807.7
429.477	813.5
429.939	812.6
430.402	810.7
430.864	807.8
431.327	810.9
431.789	805.7
432.252	810.3
432.714	809.9
433.176	807.8
433.639	807.8
434.101	806.9
434.563	817
435.026	813.9
435.488	809.4
435.95	812.4
436.412	810.2
436.875	807.2
437.337	814.8
437.799	812.7
438.261	819
438.723	816.9
439.185	810
439.647	815.5
440.109	812.5
440.571	811.9
441.033	813.6
441.495	806.1
441.957	808.5
442.419	810.9
442.881	809.2
443.342	811.3
443.804	816.7
444.266	811.8
444.728	806.8
445.189	816.7
445.651	807.2
446.113	807.5
446.574	813.6
447.036	811.8
447.497	810.5
447.959	810.2
448.421	812.1
448.882	817.3
449.343	808
449.805	808.1
450.266	806.4
450.728	805.1
451.189	807.2
451.65	809.2
452.112	816.7
452.573	809.5
453.034	807.9
453.495	818.3
453.957	815.5
454.418	803
454.879	803.8
455.34	809.9
455.801	811.2
456.262	800.1
456.723	811.5
457.184	803.2
457.645	804.6
458.106	808
458.567	809.6
459.028	805.5
459.489	812.6
459.95	804.6
460.41	806.5
460.871	809.2
461.332	802.8
461.793	804.7
462.253	814.3
462.714	808.8
463.175	806.2
463.635	804.5
464.096	810.7
464.556	810
465.017	807.1
465.478	804.8
465.938	813.8
466.398	810.4
466.859	805.6
467.319	814.7
467.78	808.9
468.24	812.5
468.7	810
469.161	809.1
469.621	811.2
470.081	812.7
470.541	807.8
471.002	811
471.462	815.1
471.922	820.1
472.382	819.1
472.842	810.1
473.302	815.7
473.762	812.7
474.222	819.1
474.682	819.8
475.142	814.9
475.602	824.4
476.062	818.7
476.522	827.1
476.982	831
477.442	826.3
477.901	829.9
478.361	841.9
478.821	834.3
479.281	834.2
479.74	833
480.2	830.5
480.659	830.7
481.119	836.3
481.579	824.5
482.038	830.2
482.498	825.4
482.957	809.1
483.417	800.7
483.876	789.7
484.336	790.8
484.795	784.3
485.254	781.7
485.714	791.1
486.173	785.1
486.632	786.5
487.091	790.2
487.551	787.3
488.01	791
488.469	783.2
488.928	784.3
489.387	785.4
489.846	788.3
490.305	786.4
490.764	784.7
491.223	778.8
491.682	784.5
492.141	789.4
492.6	781.7
493.059	790
493.518	783.5
493.977	784.7
494.436	790
494.895	784.1
495.353	777.4
495.812	784.5
496.271	784.7
496.729	780.5
497.188	784.2
497.647	778.1
498.105	781.3
498.564	781.7
499.022	783.6
499.481	787.1
499.939	781.9
500.398	784.7
500.856	783.8
501.315	782.8
501.773	783.1
502.232	786.7
502.69	786
503.148	793.1
503.606	786.4
504.065	792.5
504.523	779.7
504.981	781.5
505.439	784.4
505.897	787
506.356	782.6
506.814	794.8
507.272	786.5
507.73	782.8
508.188	784.7
508.646	784.7
509.104	788
509.562	781.6
510.02	788.9
510.477	808.2
510.935	788.4
511.393	781
511.851	781.3
512.309	780.2
512.766	783.4
513.224	783.2
513.682	786.3
514.139	790.2
514.597	780.3
515.055	779.9
515.512	786.4
515.97	783
516.427	788.6
516.885	782.1
517.342	783.2
517.8	788.1
518.257	787.4
518.714	793.8
519.172	785.1
519.629	783.7
520.086	786.4
520.544	781.2
521.001	781.4
521.458	784.3
521.915	788.6
522.373	780.1
522.83	784.8
523.287	790.7
523.744	783.1
524.201	785.5
524.658	782.6
525.115	785.8
525.572	781
526.029	777.3
526.486	788.5
526.943	786.8
527.4	789.6
527.857	788.1
528.313	782.2
528.77	785.2
529.227	791.8
529.684	779.8
530.14	782.9
530.597	781.8
531.054	778.7
531.51	780
531.967	782.8
532.423	781.2
532.88	781.8
533.337	787
533.793	785.1
534.25	782.9
534.706	777.9
535.162	784.5
535.619	782.7
536.075	788.7
536.531	783.3
536.988	786.2
537.444	790.2
537.9	776
538.356	781.5
538.813	784.7
539.269	797.1
539.725	790.2
540.181	786.3
540.637	781.8
541.093	783.7
541.549	782
542.005	787.3
542.461	784.4
542.917	793.9
543.373	790.4
543.829	784.6
544.285	785.8
544.741	787.9
545.197	790.2
545.652	783.6
546.108	795.1
546.564	786.3
547.02	784.5
547.475	785.1
547.931	785.6
548.387	789.1
548.842	785
549.298	785.8
549.753	787.9
550.209	794.7
550.664	779.5
551.12	787.3
551.575	788.1
552.031	794.8
552.486	788.6
552.941	780.1
553.397	870.7
553.852	792.2
554.307	787.6
554.762	790.4
555.218	785
555.673	786.5
556.128	784.1
556.583	782.5
557.038	786.3
557.493	782.1
557.948	778.6
558.403	785.9
558.858	780.5
559.313	782.6
559.768	789.1
560.223	774
560.678	792.6
561.133	780
561.588	782.7
562.043	783.7
562.497	783.9
562.952	778.6
563.407	782.3
563.862	790
564.316	783.7
564.771	781.2
565.226	782.2
565.68	783
566.135	778.1
566.589	784.6
567.044	783.3
567.498	782
567.953	786.6
568.407	781.4
568.862	785.2
569.316	788.8
569.77	785.1
570.225	781.3
570.679	792.1
571.133	785.4
571.587	785.8
572.042	784.4
572.496	786.9
572.95	782.4
573.404	780.7
573.858	781.7
574.312	779.7
574.766	780.8
575.22	784.2
575.674	780.8
576.128	781.4
576.582	787.3
577.036	775.4
577.49	776.9
577.944	786.6
578.398	787
578.852	788.4
579.305	783.3
579.759	783.5
580.213	785.8
580.666	782.9
581.12	780.9
581.574	789.6
582.027	784.9
582.481	782.9
582.935	781.8
583.388	789.6
583.842	784.7
584.295	780.5
584.748	785.6
585.202	791
585.655	783.9
586.109	782.8
586.562	796.6
587.015	792.5
587.469	791.5
587.922	784.7
588.375	782.1
588.828	784.2
589.281	783.1
589.735	779.7
590.188	786.3
590.641	780.3
591.094	785.2
591.547	777.3
592	787.7
592.453	785.4
592.906	780.7
593.359	783.1
593.812	783.6
594.265	795.1
594.717	790.6
595.17	787.2
595.623	784.1
596.076	781.2
596.529	783.7
596.981	781.7
597.434	786.5
597.887	780.1
598.339	777.2
598.792	779
599.245	783.9
599.697	787.3
600.15	783.5
600.602	790.4
601.055	788.8
601.507	781.5
601.959	781.7
602.412	783.8
602.864	785.1
603.316	783
603.769	782.3
604.221	789.9
604.673	787
605.126	784.6
605.578	784.1
606.03	780.8
606.482	779.5
606.934	783
607.386	780
607.838	781.4
608.29	785.7
608.742	789.9
609.194	780.9
609.646	782
610.098	789.3
610.55	782.5
611.002	787.3
611.454	779.6
611.906	781.7
612.357	780.2
612.809	788.6
613.261	787.8
613.713	787.2
614.164	781.4
614.616	784.5
615.068	790.7
615.519	786.2
615.971	781.7
616.422	786.7
616.874	785.5
617.325	782.9
617.777	781.5
618.228	784.5
618.68	786.2
619.131	785.7
619.582	780.8
620.034	784.8
620.485	786.2
620.936	776.9
621.387	780
621.839	786
622.29	786.2
622.741	791.5
623.192	783.7
623.643	787.9
624.094	782.2
624.545	781
624.996	781.1
625.447	789.8
625.898	790.9
626.349	785.5
626.8	779.2
627.251	782
627.702	783.2
628.153	786.9
628.604	777.8
629.054	785.5
629.505	792.5
629.956	787.2
630.406	786.8
630.857	788.3
631.308	779.4
631.758	784
632.209	784.1
632.66	785.1
633.11	787.5
633.561	781.5
634.011	787.1
634.461	782.1
634.912	786.5
635.362	786.4
635.813	777.4
636.263	779.7
636.713	793
637.164	778.9
637.614	782.1
638.064	776.1
638.514	780.6
638.964	784.3
639.415	789.7
639.865	782.8
640.315	784.7
640.765	785.1
641.215	787.6
641.665	780.6
642.115	785.4
642.565	801.2
643.015	786.9
643.465	783.5
643.915	780.4
644.364	783.6
644.814	779.5
645.264	784.4
645.714	790.1
646.163	787.6
646.613	783.2
647.063	790.3
647.513	784.1
647.962	784.2
648.412	785
648.861	784.7
649.311	780.6
649.76	786.3
650.21	784.1
650.659	787.8
651.109	779.9
651.558	780.5
652.008	787.7
652.457	787
652.906	779.1
653.356	787.3
653.805	779
654.254	784.2
654.703	781.1
655.152	782.4
655.602	781.1
656.051	782.9
656.5	777.7
656.949	777.7
657.398	786.4
657.847	780.2
658.296	779.8
658.745	779.8
659.194	788
659.643	789.8
660.092	775.3
660.541	783.3
660.989	782.9
661.438	784.8
661.887	787.7
662.336	781.3
662.784	783.1
663.233	783.4
663.682	788.8
664.13	785.8
664.579	783.5
665.028	784.1
665.476	785.1
665.925	782.1
666.373	787.3
666.822	778.8
667.27	781.1
667.719	782.8
668.167	782.5
668.615	786.3
669.064	780.8
669.512	777.5
669.96	787.7
670.408	783.5
670.857	778.6
671.305	787.6
671.753	781.2
672.201	788
672.649	784.8
673.097	790.1
673.545	784.1
673.993	785.8
674.441	778.1
674.889	779.1
675.337	778.7
675.785	790
676.233	784.3
676.681	785.7
677.129	782.3
677.577	780.8
678.025	782.9
678.472	779.5
678.92	782.9
679.368	786.6
679.815	783.3
680.263	781.1
680.711	783.1
681.158	783.3
681.606	788.3
682.053	785.4
682.501	781.7
682.948	787.7
683.396	787.2
683.843	790.6
684.291	783.3
684.738	790.8
685.185	784.6
685.633	801.4
686.08	784.9
686.527	781.1
686.974	780.1
687.422	782.6
687.869	787.8
688.316	782.8
688.763	778.5
689.21	786.5
689.657	785.5
690.104	784.8
690.551	788.7
690.998	789.1
691.445	776
691.892	795
692.339	782.3
692.786	786
693.233	782
693.68	792.2
694.127	794.6
694.573	783.3
695.02	781.5
695.467	784.7
695.913	787.2
696.36	789
696.807	796
697.253	794.3
697.7	788.1
698.146	781.8
698.593	784.5
699.039	789.9
699.486	784.8
699.932	782.8
700.379	787.7
700.825	791.9
701.272	786.2
701.718	791.8
702.164	791.5
702.61	788.1
703.057	782.9
703.503	785.5
703.949	787.6
704.395	785.9
704.841	784.4
705.287	787.2
705.734	787.2
706.18	788.2
706.626	788.1
707.072	789.6
707.518	790.6
707.964	783.1
708.409	783.3
708.855	785.2
709.301	789.9
709.747	789.9
710.193	786.4
710.639	788.8
711.084	792.5
711.53	787.3
711.976	782
712.421	790.2
712.867	775
713.313	787.7
713.758	779
714.204	784.2
714.649	790.4
715.095	791.2
715.54	790.3
715.986	780.3
716.431	780.3
716.877	787.8
717.322	781.9
717.767	792.3
718.213	785.6
718.658	783.6
719.103	785.9
719.548	793.4
719.994	785.7
720.439	781.6
720.884	782.1
721.329	783.8
721.774	790.5
722.219	784.1
722.664	785.1
723.109	786
723.554	780
723.999	784.8
724.444	796.4
724.889	786.4
725.334	796.5
725.779	782.5
726.223	785.5
726.668	783.5
727.113	783.3
727.558	787
728.002	782.2
728.447	786.9
728.892	799.9
729.336	786.5
729.781	783.1
730.225	790.2
730.67	784
731.114	787
731.559	788.6
732.003	797.4
732.448	789.2
732.892	784.4
733.337	780.7
733.781	786.5
734.225	791.9
734.67	795.6
735.114	790.1
735.558	786.8
736.002	792.6
736.446	784
736.891	791.4
737.335	786.2
737.779	788.3
738.223	785.8
738.667	786.2
739.111	780.5
739.555	799.4
739.999	793.4
740.443	787.4
740.887	793.8
741.33	787.8
741.774	789.9
742.218	790.5
742.662	781.1
743.106	785.7
743.549	788.1
743.993	791.5
744.437	789.8
744.88	785.9
745.324	780.4
745.768	785.9
746.211	787.1
746.655	785.6
747.098	791.2
747.542	796
747.985	792.1
748.429	787.1
748.872	777.4
749.315	793.4
749.759	792.6
750.202	789.3
750.645	783.7
751.089	788.7
751.532	786.8
751.975	785.5
752.418	785.9
752.861	793.9
753.305	791.9
753.748	784.3
754.191	783.5
754.634	792
755.077	792.9
755.52	789.6
755.963	792.6
756.406	790.2
756.849	783.6
757.291	793.9
757.734	790.6
758.177	784.7
758.62	791.6
759.063	791.1
759.505	789.1
759.948	790.5
760.391	786.8
760.833	788.4
761.276	790.7
761.719	787.1
762.161	794.4
762.604	792.2
763.046	786.2
763.489	786.5
763.931	791.6
764.374	789.5
764.816	785.8
765.258	783.6
765.701	782
766.143	785.6
766.585	797.2
767.028	792.1
767.47	787.5
767.912	782.6
768.354	782.3
768.796	783.8
769.238	794.3
769.681	782.9
770.123	787.6
770.565	794.1
771.007	787.3
771.449	788.2
771.891	798.7
772.333	792.9
772.774	784.8
773.216	782
773.658	792.9
774.1	783.5
774.542	785.1
774.984	785.2
775.425	796.5
775.867	782.9
776.309	785.7
776.75	787
777.192	786.4
777.634	790.3
778.075	791
778.517	789.5
778.958	794.5
779.4	796
779.841	787.2
780.283	782.9
780.724	794
781.165	791.9
781.607	786.5
782.048	787.1
782.489	790.8
782.931	783.1
783.372	796.4
783.813	786.5
784.254	785.8
784.695	791.5
785.136	798.7
785.578	785.4
786.019	794.7
786.46	787.1
786.901	785.6
787.342	781.2
787.783	787.6
788.224	782.5
788.664	793.1
789.105	783.2
789.546	791
789.987	788.6
790.428	780.7
790.869	783.4
791.309	785.1
791.75	784.1
792.191	792.8
792.631	799.2
793.072	790.1
793.513	782.7
793.953	782.4
794.394	787.9
794.834	786.6
795.275	786.9
795.715	790.3
796.156	782.1
796.596	780.7
797.036	792.8
797.477	792.7
797.917	793.8
798.357	787.4
798.798	786.8
799.238	790
799.678	787.6
