节点UV_HRD08281_00022.txt的数据
Date: Wed Jan 15 10:39:14 CST 2020
User: lab329
Spectrometer: HR+D0828
触发模式: 0
积分时间 (秒): 2.000000E-3
Scans to average: 10
启用暗噪声校正: false
启用非线性校正: false
滑动平均宽度: 0
X轴模式: Wavelengths
Number of Pixels in Spectrum: 2048
>>>>>Begin Spectral Data<<<<<
186.281	776.9
186.758	776.9
187.234	776.9
187.71	779.9
188.187	783.3
188.663	780.6
189.139	778.4
189.615	779.9
190.091	781.1
190.567	785.1
191.043	781
191.519	777
191.995	776.5
192.471	778.3
192.947	782.4
193.423	785.9
193.899	776.6
194.375	775.6
194.851	778.3
195.327	771.6
195.803	781.4
196.278	781.3
196.754	781.7
197.23	779
197.706	782.1
198.181	782.1
198.657	781
199.133	779.6
199.608	777.5
200.084	779.6
200.559	778.4
201.035	777.9
201.51	780.4
201.986	782.4
202.461	778.6
202.937	775.4
203.412	779.9
203.887	778.5
204.363	780
204.838	781.7
205.313	779.7
205.789	777.6
206.264	774.4
206.739	778
207.214	778
207.689	777.4
208.165	779.7
208.64	777.6
209.115	775.9
209.59	779.1
210.065	777.6
210.54	775.7
211.015	777.8
211.49	779.8
211.965	776.5
212.44	774.9
212.914	776.2
213.389	780.5
213.864	779.3
214.339	780.9
214.814	780.2
215.288	777.8
215.763	776.2
216.238	778
216.712	782.6
217.187	775.9
217.662	778.2
218.136	776.9
218.611	779.5
219.085	778.8
219.56	773.1
220.034	775.1
220.509	778.6
220.983	775.2
221.458	778.3
221.932	776.8
222.406	776.8
222.881	779.5
223.355	776
223.829	775.7
224.303	779
224.778	776.8
225.252	775
225.726	777.8
226.2	775.2
226.674	775.8
227.148	775.5
227.622	777.3
228.096	778
228.57	777.7
229.044	777.9
229.518	776.6
229.992	776.5
230.466	776.9
230.94	776.4
231.414	777.9
231.888	779.2
232.361	779.4
232.835	778.4
233.309	773
233.783	779.8
234.256	780.8
234.73	781
235.204	778.9
235.677	780.8
236.151	778.9
236.624	776.9
237.098	777.2
237.571	774.4
238.045	778.4
238.518	774.9
238.992	778.7
239.465	776.6
239.939	773.4
240.412	777.9
240.885	782.4
241.359	779.3
241.832	776.4
242.305	777.3
242.778	779.9
243.251	779.9
243.725	776.3
244.198	783.1
244.671	776.1
245.144	774.4
245.617	778.4
246.09	778.7
246.563	777.8
247.036	776.3
247.509	778.8
247.982	781.9
248.455	780
248.928	778
249.4	780.1
249.873	778
250.346	779.2
250.819	780.6
251.292	777.9
251.764	780.9
252.237	781.3
252.71	775.4
253.182	780.2
253.655	778.8
254.127	775.9
254.6	780
255.073	779.9
255.545	782.6
256.018	778.4
256.49	778.3
256.962	778.8
257.435	776.5
257.907	781.4
258.379	777.4
258.852	778
259.324	778.7
259.796	781.8
260.269	777.1
260.741	779.7
261.213	779.5
261.685	775.7
262.157	776.8
262.629	780.3
263.101	781.7
263.574	778.4
264.046	775.7
264.518	781.1
264.99	779.2
265.461	778.4
265.933	783.9
266.405	773
266.877	780.7
267.349	781.2
267.821	777.1
268.293	779.8
268.764	772.6
269.236	776.5
269.708	780.6
270.18	777.8
270.651	782.7
271.123	780.3
271.594	772.8
272.066	783.1
272.538	783.2
273.009	779.1
273.481	783.1
273.952	779.9
274.423	778.3
274.895	782.3
275.366	774.8
275.838	779.2
276.309	780.5
276.78	776.7
277.252	778.5
277.723	780.3
278.194	776.8
278.665	782
279.136	780.8
279.608	777.4
280.079	776.7
280.55	779.9
281.021	778.6
281.492	781.5
281.963	780.5
282.434	778.6
282.905	781.5
283.376	783.7
283.847	775.7
284.318	777.3
284.789	778.8
285.259	777.6
285.73	774.4
286.201	778.9
286.672	779.5
287.143	778
287.613	774.3
288.084	780.3
288.555	782
289.025	786.6
289.496	782.5
289.966	785
290.437	781.7
290.907	780.1
291.378	782.5
291.848	782
292.319	777.2
292.789	777.9
293.26	780.1
293.73	781
294.2	780.8
294.671	774.8
295.141	782.2
295.611	776.3
296.081	776.5
296.552	779.6
297.022	780.4
297.492	778.8
297.962	780.8
298.432	775.9
298.902	780.4
299.372	779.8
299.842	777.2
300.312	778.6
300.782	777.7
301.252	780
301.722	780.5
302.192	782.5
302.662	780.8
303.132	777.4
303.602	781
304.071	779.1
304.541	779.4
305.011	781.3
305.481	779.8
305.95	778.6
306.42	778.3
306.889	782
307.359	776.1
307.829	776.2
308.298	778.5
308.768	783.4
309.237	779
309.707	774.8
310.176	783.1
310.645	782.5
311.115	779.4
311.584	780.7
312.054	780.7
312.523	782.2
312.992	774.2
313.461	781.6
313.931	783.8
314.4	782.8
314.869	776.8
315.338	782
315.807	777.4
316.276	776
316.745	781.8
317.214	776.3
317.683	781.1
318.152	779.5
318.621	782.7
319.09	780.4
319.559	782
320.028	778.4
320.497	777.9
320.966	780.4
321.435	782.1
321.903	779.4
322.372	776.5
322.841	778.3
323.31	778.4
323.778	784.8
324.247	782
324.715	778.5
325.184	776.5
325.653	782
326.121	776.9
326.59	788.2
327.058	781.7
327.527	780.4
327.995	780.7
328.463	783.6
328.932	784.3
329.4	780.3
329.868	782.2
330.337	785.2
330.805	778.6
331.273	778.3
331.741	776.4
332.21	781.4
332.678	781.1
333.146	780.6
333.614	781.4
334.082	777.3
334.55	778.6
335.018	775.7
335.486	779.1
335.954	779.4
336.422	781.4
336.89	784.4
337.358	776.4
337.826	779.9
338.294	780
338.762	779.4
339.229	779.2
339.697	783.6
340.165	779.2
340.633	784.7
341.1	781.1
341.568	782.1
342.035	781.4
342.503	781.3
342.971	785.4
343.438	782.4
343.906	783.2
344.373	782.3
344.841	778.1
345.308	782.6
345.776	783.3
346.243	779.7
346.71	780.2
347.178	782.5
347.645	776.5
348.112	783.7
348.58	779.3
349.047	779.3
349.514	783
349.981	781
350.448	782.7
350.915	778.2
351.383	777.8
351.85	777
352.317	783.4
352.784	781.4
353.251	778.8
353.718	784.2
354.185	784.9
354.651	784
355.118	779.2
355.585	783.2
356.052	781.8
356.519	780
356.986	783.6
357.452	782.7
357.919	785.3
358.386	781.8
358.853	779.9
359.319	783
359.786	780.6
360.252	781.7
360.719	785.2
361.185	780.8
361.652	782.6
362.118	782
362.585	780.4
363.051	784.4
363.518	779.7
363.984	784.2
364.451	780.6
364.917	781.5
365.383	778.1
365.849	779.1
366.316	782.8
366.782	781.4
367.248	782.6
367.714	783.3
368.18	780.7
368.647	779.6
369.113	783.5
369.579	780.4
370.045	782.5
370.511	780.6
370.977	785
371.443	776.5
371.909	785.6
372.374	781.5
372.84	784.3
373.306	782.1
373.772	784.1
374.238	784.8
374.704	778.7
375.169	781.7
375.635	781.7
376.101	780.5
376.566	780.5
377.032	777.3
377.498	780.9
377.963	785.8
378.429	779.7
378.894	782
379.36	783.2
379.825	781.2
380.291	781.3
380.756	780.8
381.222	784.8
381.687	783.8
382.152	780.6
382.618	781.1
383.083	780.1
383.548	779
384.013	779.1
384.479	780.4
384.944	784.2
385.409	777.3
385.874	785
386.339	782
386.804	779.6
387.269	776.3
387.734	779.2
388.199	781.4
388.664	782.4
389.129	786.8
389.594	782.2
390.059	784
390.524	788.6
390.989	787
391.453	783.6
391.918	789.9
392.383	782.8
392.848	778.1
393.312	781.6
393.777	780
394.242	779.2
394.706	783.5
395.171	780.6
395.635	785.4
396.1	780.8
396.565	782.6
397.029	783
397.493	785.6
397.958	784.5
398.422	783.1
398.887	783
399.351	784.6
399.815	783.3
400.28	779.2
400.744	785.4
401.208	778
401.672	779.1
402.137	780.5
402.601	781.9
403.065	781.6
403.529	782.3
403.993	780.5
404.457	780.3
404.921	784.7
405.385	777.9
405.849	786.2
406.313	781.1
406.777	778.3
407.241	783.7
407.705	781.7
408.169	784.6
408.632	784.8
409.096	782.8
409.56	785.7
410.024	786.9
410.487	785.7
410.951	781.8
411.415	783.4
411.878	787
412.342	782.1
412.806	781
413.269	779.2
413.733	786.6
414.196	788.4
414.66	786.8
415.123	783.8
415.587	784.8
416.05	787
416.513	787.7
416.977	783.4
417.44	784.5
417.903	785.1
418.366	779.5
418.83	785.8
419.293	784.4
419.756	781.9
420.219	780.2
420.682	786.1
421.145	783.5
421.608	783
422.072	786.4
422.535	787.2
422.998	787.6
423.46	790.5
423.923	786.3
424.386	785.8
424.849	785.3
425.312	784.1
425.775	788.2
426.238	786
426.7	790.5
427.163	785.6
427.626	787
428.089	791.1
428.551	793.2
429.014	789.3
429.477	791.5
429.939	796.5
430.402	798.7
430.864	799.3
431.327	799.8
431.789	799.2
432.252	799.3
432.714	801.1
433.176	803
433.639	801.2
434.101	808
434.563	807.2
435.026	811
435.488	815.6
435.95	815
436.412	820.8
436.875	824.4
437.337	837.5
437.799	846.6
438.261	855.5
438.723	872.3
439.185	893.5
439.647	915.8
440.109	949.9
440.571	995.4
441.033	1053.3
441.495	1134.7
441.957	1234.7
442.419	1351.2
442.881	1513.1
443.342	1684.7
443.804	1882.4
444.266	2140.7
444.728	2440.1
445.189	2770.6
445.651	3150.6
446.113	3666.4
446.574	4215.4
447.036	4810.9
447.497	5467.4
447.959	6199.7
448.421	7051.6
448.882	7787.5
449.343	8610.7
449.805	9146.8
450.266	10096.4
450.728	10957.3
451.189	11463.8
451.65	11668.5
452.112	12366.7
452.573	12767.2
453.034	12961.3
453.495	13047
453.957	12810.3
454.418	12515.3
454.879	12030.5
455.34	11661.7
455.801	11209.1
456.262	10824.7
456.723	10301.6
457.184	9689.4
457.645	9177.2
458.106	8599.4
458.567	7978.2
459.028	7451.2
459.489	6698.8
459.95	6139.1
460.41	5560.1
460.871	5058.7
461.332	4560.8
461.793	4168
462.253	3712.7
462.714	3346.6
463.175	3031.3
463.635	2706.5
464.096	2461.5
464.556	2281.5
465.017	2079.2
465.478	1895.2
465.938	1748.8
466.398	1623.4
466.859	1500.2
467.319	1403.4
467.78	1321.9
468.24	1250.4
468.7	1180.6
469.161	1135.9
469.621	1087.1
470.081	1060.8
470.541	1027.6
471.002	1007.9
471.462	983.8
471.922	971
472.382	946.5
472.842	938.7
473.302	932.2
473.762	906.5
474.222	899
474.682	895.3
475.142	893.1
475.602	885.7
476.062	878.6
476.522	880.1
476.982	872.3
477.442	874
477.901	864.6
478.361	862.2
478.821	858.7
479.281	851.4
479.74	853.1
480.2	850.1
480.659	848.9
481.119	843.2
481.579	838.9
482.038	832.3
482.498	821.6
482.957	804.3
483.417	792.3
483.876	786.3
484.336	790.7
484.795	783.2
485.254	787.6
485.714	785.4
486.173	788.6
486.632	788
487.091	785.4
487.551	787.6
488.01	783.4
488.469	780.7
488.928	785.7
489.387	783.9
489.846	785.4
490.305	781.6
490.764	783.3
491.223	782.5
491.682	783.9
492.141	782.2
492.6	784.2
493.059	781.1
493.518	781.5
493.977	775.9
494.436	786.1
494.895	776.5
495.353	778.3
495.812	781.9
496.271	789.2
496.729	785.2
497.188	774.1
497.647	783.8
498.105	786.5
498.564	781.6
499.022	778.4
499.481	779.6
499.939	784.7
500.398	779.2
500.856	775.7
501.315	777.2
501.773	777.1
502.232	779.3
502.69	779.2
503.148	776.8
503.606	784
504.065	778.5
504.523	781.6
504.981	778.7
505.439	782.4
505.897	781.2
506.356	780.3
506.814	776.9
507.272	782.8
507.73	779.6
508.188	777.3
508.646	777.5
509.104	780.7
509.562	779.1
510.02	775.1
510.477	780.4
510.935	777.4
511.393	780.2
511.851	778
512.309	782
512.766	780.3
513.224	773.5
513.682	780
514.139	776.8
514.597	776.3
515.055	780.7
515.512	777.4
515.97	783.5
516.427	779.8
516.885	779.3
517.342	780
517.8	780
518.257	782.2
518.714	781.2
519.172	781.7
519.629	777.7
520.086	777.8
520.544	774.1
521.001	779.4
521.458	776
521.915	782
522.373	780.5
522.83	779.5
523.287	780.2
523.744	782.9
524.201	780.5
524.658	780.6
525.115	779.1
525.572	776.2
526.029	780.8
526.486	780.9
526.943	779.9
527.4	775.5
527.857	775.8
528.313	775.8
528.77	777.5
529.227	779.5
529.684	778.9
530.14	785
530.597	776.4
531.054	774.9
531.51	773.3
531.967	776.5
532.423	777.9
532.88	776.7
533.337	777.4
533.793	780.4
534.25	776
534.706	779.8
535.162	772
535.619	780.9
536.075	781.5
536.531	775.6
536.988	779.9
537.444	781.4
537.9	776.1
538.356	776.2
538.813	775.3
539.269	778.6
539.725	780.5
540.181	778.8
540.637	783.4
541.093	783.8
541.549	778.1
542.005	778.3
542.461	781.2
542.917	773.4
543.373	782.3
543.829	775.1
544.285	779.8
544.741	778
545.197	779.6
545.652	779.8
546.108	782.7
546.564	776.3
547.02	780.3
547.475	776
547.931	773.8
548.387	777.5
548.842	776.7
549.298	778.5
549.753	776.4
550.209	781.1
550.664	782.1
551.12	779
551.575	779.7
552.031	783.5
552.486	777.5
552.941	778.7
553.397	777.4
553.852	776.6
554.307	779.2
554.762	779.2
555.218	777.2
555.673	781.4
556.128	777.5
556.583	780.3
557.038	777
557.493	777.6
557.948	777.1
558.403	776.2
558.858	782.6
559.313	779.6
559.768	776.6
560.223	778.1
560.678	780.8
561.133	774
561.588	780.8
562.043	777.8
562.497	776.6
562.952	771.3
563.407	774.2
563.862	775.1
564.316	778.2
564.771	775.5
565.226	778.6
565.68	780.7
566.135	778.1
566.589	778.8
567.044	777.3
567.498	774.5
567.953	781.9
568.407	777.7
568.862	780
569.316	777.7
569.77	780.2
570.225	772.8
570.679	776.4
571.133	778.9
571.587	774.9
572.042	777.7
572.496	774.2
572.95	780.8
573.404	775
573.858	779.9
574.312	778.1
574.766	781.9
575.22	780.1
575.674	778.6
576.128	775.4
576.582	776.6
577.036	774.8
577.49	776.6
577.944	778.2
578.398	779.4
578.852	780.3
579.305	779.1
579.759	778.7
580.213	778.5
580.666	773.5
581.12	779
581.574	777.3
582.027	777.7
582.481	777.6
582.935	774.4
583.388	777.9
583.842	775.9
584.295	775.1
584.748	777.3
585.202	779
585.655	774.9
586.109	778.9
586.562	779.4
587.015	778.9
587.469	774
587.922	771.6
588.375	780.4
588.828	776
589.281	779.5
589.735	777.3
590.188	775
590.641	775
591.094	779.2
591.547	773
592	776.9
592.453	777.1
592.906	774.1
593.359	777.3
593.812	781.4
594.265	779.5
594.717	779.7
595.17	773.2
595.623	779
596.076	776.6
596.529	775
596.981	771.6
597.434	774.5
597.887	779.4
598.339	777.8
598.792	770.2
599.245	778.4
599.697	778.2
600.15	776.7
600.602	781.3
601.055	770.9
601.507	776.7
601.959	776.6
602.412	778.6
602.864	777.4
603.316	776.2
603.769	774.5
604.221	777.7
604.673	778.3
605.126	779.1
605.578	778.2
606.03	776.2
606.482	777.2
606.934	774.6
607.386	779.1
607.838	776.3
608.29	783
608.742	775.3
609.194	777.8
609.646	778.3
610.098	778.2
610.55	773.8
611.002	772.9
611.454	774.3
611.906	775.9
612.357	773.6
612.809	778.8
613.261	774.2
613.713	777
614.164	778
614.616	773.1
615.068	772.3
615.519	776.7
615.971	774.2
616.422	778.3
616.874	783.4
617.325	779.8
617.777	777
618.228	774.1
618.68	778.3
619.131	775
619.582	777.8
620.034	780.6
620.485	779.4
620.936	772.3
621.387	775.3
621.839	778.3
622.29	776.1
622.741	775.2
623.192	774.3
623.643	780.3
624.094	773.2
624.545	776.1
624.996	773.8
625.447	779.4
625.898	775.3
626.349	776.2
626.8	771.8
627.251	775.8
627.702	777.6
628.153	772.5
628.604	779.9
629.054	773.9
629.505	779.9
629.956	774.2
630.406	768.6
630.857	777.3
631.308	778.5
631.758	775
632.209	775.6
632.66	778.1
633.11	781.1
633.561	778
634.011	773.2
634.461	777.1
634.912	775.5
635.362	775.6
635.813	777.2
636.263	782.8
636.713	777.2
637.164	778.1
637.614	777.5
638.064	778.1
638.514	774.2
638.964	774.3
639.415	776.8
639.865	779.3
640.315	776.4
640.765	777.6
641.215	776.3
641.665	773.8
642.115	776.2
642.565	776.7
643.015	777.4
643.465	776.8
643.915	775.8
644.364	775.5
644.814	774
645.264	778.4
645.714	775.9
646.163	776.6
646.613	773.7
647.063	783
647.513	775.3
647.962	775.5
648.412	773.9
648.861	776.3
649.311	779.6
649.76	777.9
650.21	775.4
650.659	773.4
651.109	782.5
651.558	777.4
652.008	774.5
652.457	774.3
652.906	776.1
653.356	775.4
653.805	773.2
654.254	777.1
654.703	777.1
655.152	775.5
655.602	776.2
656.051	773.2
656.5	774.7
656.949	781.5
657.398	776.4
657.847	779.3
658.296	775
658.745	778.8
659.194	780.7
659.643	772.7
660.092	772.3
660.541	775.6
660.989	773.2
661.438	776.6
661.887	776.4
662.336	776.2
662.784	775.3
663.233	773.8
663.682	781.5
664.13	773.9
664.579	772.3
665.028	774.5
665.476	774
665.925	778.7
666.373	775.7
666.822	777.8
667.27	774.1
667.719	779.5
668.167	777.3
668.615	781.9
669.064	773.8
669.512	771.9
669.96	771.7
670.408	774.5
670.857	775.6
671.305	777.9
671.753	775.5
672.201	779
672.649	773.4
673.097	781.6
673.545	776.3
673.993	775.5
674.441	779.2
674.889	778.5
675.337	773
675.785	776
676.233	777
676.681	777.7
677.129	775.9
677.577	777.6
678.025	778.5
678.472	776.3
678.92	775.4
679.368	777.7
679.815	777.9
680.263	775.3
680.711	772.3
681.158	772.6
681.606	777.7
682.053	774.8
682.501	773.2
682.948	777.9
683.396	779.5
683.843	776.1
684.291	775.2
684.738	781.2
685.185	773.8
685.633	773
686.08	774
686.527	779.8
686.974	776.8
687.422	772.6
687.869	769.1
688.316	774.7
688.763	773.5
689.21	779.7
689.657	772.3
690.104	777.3
690.551	779.6
690.998	775.2
691.445	780.2
691.892	777.4
692.339	775.4
692.786	774.2
693.233	776.9
693.68	777.8
694.127	772.2
694.573	777.4
695.02	778.9
695.467	778.2
695.913	775.6
696.36	780.3
696.807	772.8
697.253	779
697.7	777.5
698.146	775.3
698.593	778.8
699.039	772.4
699.486	777
699.932	773.4
700.379	776.5
700.825	774.4
701.272	769.7
701.718	777.1
702.164	779.9
702.61	773.6
703.057	772.4
703.503	775
703.949	774.6
704.395	780.2
704.841	778.2
705.287	778.8
705.734	779.2
706.18	776.4
706.626	775.8
707.072	777.2
707.518	775.6
707.964	779.3
708.409	773.3
708.855	775.8
709.301	776.1
709.747	771.7
710.193	778
710.639	779.8
711.084	774.6
711.53	779.4
711.976	778
712.421	777.5
712.867	777.4
713.313	776.8
713.758	774.3
714.204	776.6
714.649	774.5
715.095	774.5
715.54	776.5
715.986	770.3
716.431	777.8
716.877	776.3
717.322	776.5
717.767	778.1
718.213	775.3
718.658	775.8
719.103	778
719.548	777.3
719.994	776.4
720.439	779.1
720.884	775.9
721.329	774.1
721.774	775.1
722.219	774
722.664	776.1
723.109	774.1
723.554	776.9
723.999	775.2
724.444	776.5
724.889	782
725.334	781.4
725.779	773.2
726.223	774.7
726.668	774.3
727.113	776
727.558	780
728.002	782.2
728.447	778.1
728.892	774.3
729.336	778.3
729.781	778
730.225	783.1
730.67	776.1
731.114	772.6
731.559	773.5
732.003	777.3
732.448	778.6
732.892	775.9
733.337	778
733.781	776
734.225	770.7
734.67	778.2
735.114	773.3
735.558	770.8
736.002	778.5
736.446	776.4
736.891	776.5
737.335	775.7
737.779	778.5
738.223	781.4
738.667	775.6
739.111	776.5
739.555	778.9
739.999	772.4
740.443	778.5
740.887	776.3
741.33	772.8
741.774	781.6
742.218	779.8
742.662	773.8
743.106	776.4
743.549	772.7
743.993	781.2
744.437	775.1
744.88	773.6
745.324	774.4
745.768	779.9
746.211	773
746.655	775.9
747.098	775.4
747.542	781.3
747.985	775
748.429	777.1
748.872	775.1
749.315	778.2
749.759	775
750.202	772.9
750.645	778.2
751.089	772.8
751.532	779
751.975	773.5
752.418	776.2
752.861	774.1
753.305	772.8
753.748	778.5
754.191	773.6
754.634	775.2
755.077	779.9
755.52	776.5
755.963	774.1
756.406	775.7
756.849	768.4
757.291	780.9
757.734	778.6
758.177	775.6
758.62	777.2
759.063	783.4
759.505	774
759.948	775
760.391	778.8
760.833	784
761.276	777.9
761.719	772.4
762.161	774.5
762.604	777
763.046	773.5
763.489	772.8
763.931	771.5
764.374	776
764.816	777.6
765.258	777
765.701	778.9
766.143	778.1
766.585	778.3
767.028	771.5
767.47	775.1
767.912	781.4
768.354	778.6
768.796	774.9
769.238	776.3
769.681	773
770.123	778.4
770.565	776.1
771.007	778.8
771.449	773.9
771.891	775.1
772.333	775.3
772.774	781.9
773.216	778.3
773.658	779.3
774.1	774.7
774.542	774.7
774.984	779.3
775.425	771.6
775.867	772.5
776.309	776.9
776.75	773.6
777.192	775.9
777.634	775.9
778.075	780
778.517	776.7
778.958	775.8
779.4	774.3
779.841	774.7
780.283	779.6
780.724	778.1
781.165	778.2
781.607	777.7
782.048	775
782.489	777.2
782.931	774.5
783.372	773.8
783.813	775.7
784.254	779.4
784.695	774.3
785.136	774
785.578	773.4
786.019	776.9
786.46	770.7
786.901	776.5
787.342	778
787.783	777.9
788.224	778.9
788.664	776.6
789.105	777.5
789.546	777.6
789.987	775.6
790.428	774.7
790.869	773.1
791.309	774.3
791.75	777.7
792.191	778.1
792.631	775.7
793.072	773.2
793.513	772.3
793.953	775.6
794.394	776.1
794.834	776
795.275	778.1
795.715	776.1
796.156	776.9
796.596	779.4
797.036	774.4
797.477	778.2
797.917	777.7
798.357	781.2
798.798	775.4
799.238	780.7
