节点UV_HRD08281_00010.txt的数据
Date: Wed Jan 15 10:34:33 CST 2020
User: lab329
Spectrometer: HR+D0828
触发模式: 0
积分时间 (秒): 4.000000E-3
Scans to average: 10
启用暗噪声校正: false
启用非线性校正: false
滑动平均宽度: 0
X轴模式: Wavelengths
Number of Pixels in Spectrum: 2048
>>>>>Begin Spectral Data<<<<<
186.281	780.2
186.758	780.2
187.234	780.2
187.71	783.4
188.187	775.5
188.663	780.9
189.139	786
189.615	783.3
190.091	782.7
190.567	779.4
191.043	783.4
191.519	780.7
191.995	780
192.471	780.2
192.947	780.8
193.423	780.1
193.899	779.2
194.375	782.2
194.851	778.6
195.327	780.3
195.803	779.8
196.278	777.8
196.754	781.2
197.23	780.9
197.706	778.1
198.181	784.3
198.657	780.1
199.133	776
199.608	784.3
200.084	781.1
200.559	778.1
201.035	778.6
201.51	781
201.986	781
202.461	778.5
202.937	783.5
203.412	781.2
203.887	780.6
204.363	778.2
204.838	775.8
205.313	779.6
205.789	780.2
206.264	778.3
206.739	773.9
207.214	779.3
207.689	776.8
208.165	777.5
208.64	783
209.115	778.6
209.59	779.1
210.065	781.4
210.54	786.9
211.015	780.1
211.49	780
211.965	775.8
212.44	777.2
212.914	775.3
213.389	776.5
213.864	782.7
214.339	778.8
214.814	780.8
215.288	776.6
215.763	771.9
216.238	778.2
216.712	778.1
217.187	778.7
217.662	776.9
218.136	778.6
218.611	784.6
219.085	780.5
219.56	778.9
220.034	777.1
220.509	780.6
220.983	782.3
221.458	777.7
221.932	778.3
222.406	782.8
222.881	775.4
223.355	778.1
223.829	776.1
224.303	779.7
224.778	773.3
225.252	777.1
225.726	776
226.2	775.1
226.674	778.1
227.148	777.2
227.622	782.3
228.096	779.2
228.57	775
229.044	779.7
229.518	778.3
229.992	780.1
230.466	785
230.94	777.5
231.414	781.4
231.888	778.4
232.361	778.8
232.835	774.2
233.309	777.5
233.783	783.9
234.256	781.5
234.73	776.8
235.204	781.1
235.677	777
236.151	778
236.624	776.2
237.098	783.5
237.571	780.8
238.045	779.3
238.518	776.5
238.992	777.5
239.465	780.6
239.939	772
240.412	777
240.885	776.7
241.359	779.7
241.832	776.1
242.305	775.5
242.778	777.9
243.251	778.1
243.725	777.6
244.198	776.8
244.671	781.9
245.144	781
245.617	777
246.09	778.2
246.563	782.6
247.036	777.5
247.509	777.9
247.982	779.9
248.455	783.7
248.928	780.5
249.4	779.7
249.873	779.5
250.346	779.3
250.819	778.2
251.292	780.3
251.764	785.3
252.237	777.9
252.71	775.5
253.182	783.1
253.655	779
254.127	782.3
254.6	781.5
255.073	787.9
255.545	779.7
256.018	782.6
256.49	778.2
256.962	779.2
257.435	777.2
257.907	779.6
258.379	780.8
258.852	776.9
259.324	779.6
259.796	780.4
260.269	780.8
260.741	781.5
261.213	779.4
261.685	776
262.157	780
262.629	778.1
263.101	780.7
263.574	784.9
264.046	779.3
264.518	783.9
264.99	780.9
265.461	779.6
265.933	773.5
266.405	780
266.877	783.6
267.349	779.3
267.821	778.7
268.293	785.4
268.764	780.3
269.236	778.5
269.708	780.8
270.18	779.9
270.651	778.1
271.123	777.2
271.594	780.9
272.066	781.1
272.538	780
273.009	779.1
273.481	786.2
273.952	784.2
274.423	781.9
274.895	778.3
275.366	780.1
275.838	784.5
276.309	779.9
276.78	781.2
277.252	783.6
277.723	780.6
278.194	784.5
278.665	778.8
279.136	778
279.608	785.3
280.079	783
280.55	783.1
281.021	781.9
281.492	783.3
281.963	780.8
282.434	781.6
282.905	779.9
283.376	783.5
283.847	778
284.318	781.4
284.789	782.9
285.259	778.8
285.73	780.6
286.201	779.6
286.672	778
287.143	780.5
287.613	781.1
288.084	783.9
288.555	779.4
289.025	779.8
289.496	778.7
289.966	780.7
290.437	782.6
290.907	776.7
291.378	780.8
291.848	780.4
292.319	784.8
292.789	782.5
293.26	784.1
293.73	776.4
294.2	774.7
294.671	779.4
295.141	782.6
295.611	783.1
296.081	780.7
296.552	778.6
297.022	782.4
297.492	782.7
297.962	787.3
298.432	779.3
298.902	778.3
299.372	780.8
299.842	783.3
300.312	779.8
300.782	778.6
301.252	779
301.722	782.2
302.192	779
302.662	781.9
303.132	781.4
303.602	781.1
304.071	781.3
304.541	781.9
305.011	785.2
305.481	785
305.95	782.2
306.42	782.2
306.889	779.3
307.359	781.9
307.829	782.3
308.298	778.4
308.768	779
309.237	781.9
309.707	781.6
310.176	776.8
310.645	783.1
311.115	779
311.584	783.5
312.054	779.8
312.523	781.3
312.992	781.1
313.461	778.7
313.931	783.4
314.4	786.8
314.869	779.4
315.338	775.5
315.807	779.9
316.276	781.2
316.745	780.9
317.214	782.5
317.683	783.1
318.152	783.4
318.621	782.6
319.09	781.7
319.559	780
320.028	776.1
320.497	779.4
320.966	780.4
321.435	780.8
321.903	779.3
322.372	780.5
322.841	783.3
323.31	779.8
323.778	786.5
324.247	774.2
324.715	781.4
325.184	782
325.653	783.8
326.121	781.1
326.59	779.1
327.058	782.7
327.527	787.3
327.995	779.6
328.463	781.9
328.932	786.7
329.4	780.2
329.868	777.2
330.337	780.5
330.805	780.2
331.273	785.6
331.741	780.8
332.21	780
332.678	786.1
333.146	782.1
333.614	781.4
334.082	781.8
334.55	780.4
335.018	778
335.486	780.9
335.954	782.4
336.422	782.3
336.89	780.7
337.358	782.6
337.826	779.6
338.294	782
338.762	782.7
339.229	779.1
339.697	781.8
340.165	781
340.633	778.8
341.1	781.5
341.568	783.3
342.035	785.3
342.503	785.3
342.971	782.4
343.438	779.9
343.906	784.5
344.373	781.6
344.841	782.9
345.308	785.9
345.776	784.6
346.243	783.1
346.71	783.8
347.178	782.1
347.645	782.9
348.112	780.3
348.58	786.4
349.047	781
349.514	774.3
349.981	781.9
350.448	780.4
350.915	781.9
351.383	777.8
351.85	779.9
352.317	785.6
352.784	780.7
353.251	784.5
353.718	784.5
354.185	780.5
354.651	783
355.118	781.5
355.585	779.4
356.052	781.9
356.519	783.4
356.986	780.3
357.452	776.5
357.919	782.5
358.386	781.3
358.853	787.5
359.319	783.9
359.786	783.2
360.252	779.1
360.719	783.7
361.185	783.6
361.652	779.1
362.118	783.4
362.585	781.8
363.051	775.1
363.518	782.4
363.984	779.6
364.451	780.5
364.917	780.8
365.383	782.3
365.849	781
366.316	783.3
366.782	784.3
367.248	785.1
367.714	782.7
368.18	780.9
368.647	783.6
369.113	788.2
369.579	780.1
370.045	785.1
370.511	783.6
370.977	781.2
371.443	783.2
371.909	783.3
372.374	786.2
372.84	785
373.306	784.5
373.772	784.5
374.238	791
374.704	787.1
375.169	786.8
375.635	790.8
376.101	791.4
376.566	789.9
377.032	792.2
377.498	792.5
377.963	793
378.429	795.9
378.894	794.1
379.36	797
379.825	799.4
380.291	798
380.756	795.1
381.222	802
381.687	806.5
382.152	807.9
382.618	808.1
383.083	806.4
383.548	816.5
384.013	815
384.479	818.2
384.944	830
385.409	847.1
385.874	869.3
386.339	908.2
386.804	962.2
387.269	1045.6
387.734	1160.4
388.199	1313.7
388.664	1554.8
389.129	1867.1
389.594	2314.9
390.059	2917.1
390.524	3736.7
390.989	4666.9
391.453	5693.9
391.918	7005.3
392.383	8302.9
392.848	9522.2
393.312	10607.6
393.777	11635.1
394.242	12249.4
394.706	12657.1
395.171	12648.3
395.635	12254.3
396.1	11858.6
396.565	11233.7
397.029	10409.2
397.493	9033
397.958	7969.8
398.422	6971.2
398.887	5899.6
399.351	4887.8
399.815	4045
400.28	3351
400.744	2779.3
401.208	2346.5
401.672	1970.4
402.137	1650.6
402.601	1428.6
403.065	1264.9
403.529	1139.8
403.993	1057.6
404.457	999.2
404.921	950.2
405.385	908.3
405.849	886.3
406.313	867.1
406.777	856
407.241	844.9
407.705	838.4
408.169	832.7
408.632	824
409.096	821.2
409.56	824.2
410.024	819
410.487	818.3
410.951	819.1
411.415	816.6
411.878	810.7
412.342	815.6
412.806	811.7
413.269	806.6
413.733	804.3
414.196	801.4
414.66	802.1
415.123	796.2
415.587	798.7
416.05	796.7
416.513	794.3
416.977	794.2
417.44	790.8
417.903	786.9
418.366	787.9
418.83	791.2
419.293	789.5
419.756	789.1
420.219	785.7
420.682	786.2
421.145	785.7
421.608	786.5
422.072	784.8
422.535	785
422.998	785.3
423.46	788.1
423.923	783.1
424.386	781.3
424.849	784.5
425.312	783.1
425.775	774.6
426.238	784.2
426.7	785.9
427.163	784.3
427.626	781.7
428.089	780.9
428.551	783
429.014	782.8
429.477	781.4
429.939	776.6
430.402	784.3
430.864	780.2
431.327	783.6
431.789	782.1
432.252	776.8
432.714	780.7
433.176	780.8
433.639	779.1
434.101	780.6
434.563	780.3
435.026	777.9
435.488	776.5
435.95	780.6
436.412	777.3
436.875	780.2
437.337	779.8
437.799	782.3
438.261	780.5
438.723	780.9
439.185	782.8
439.647	782
440.109	779.5
440.571	782.4
441.033	777.6
441.495	779.4
441.957	778.5
442.419	784.3
442.881	783
443.342	780.5
443.804	778
444.266	778.4
444.728	783.6
445.189	782.6
445.651	781.2
446.113	783.1
446.574	778.8
447.036	777.3
447.497	777.8
447.959	779.4
448.421	778.4
448.882	782.7
449.343	779.6
449.805	777
450.266	782.6
450.728	781.8
451.189	779.7
451.65	777.6
452.112	784.8
452.573	780.1
453.034	780.1
453.495	779.6
453.957	779.7
454.418	776.3
454.879	781.3
455.34	784.3
455.801	777.2
456.262	775.7
456.723	778.9
457.184	781.1
457.645	780.1
458.106	777
458.567	773.6
459.028	780.5
459.489	778.3
459.95	778.5
460.41	782.2
460.871	786.5
461.332	780.6
461.793	779.6
462.253	781.7
462.714	781.5
463.175	783.4
463.635	777.8
464.096	780.8
464.556	783.1
465.017	777.8
465.478	782.7
465.938	781.9
466.398	778.6
466.859	778.8
467.319	777.5
467.78	779.9
468.24	782.7
468.7	779.5
469.161	776.8
469.621	780.3
470.081	780.7
470.541	779.6
471.002	777.5
471.462	783.1
471.922	785.6
472.382	778.4
472.842	778.3
473.302	782.8
473.762	782.1
474.222	784
474.682	777.1
475.142	782.6
475.602	783.1
476.062	778.9
476.522	782
476.982	778
477.442	778.3
477.901	779.3
478.361	783
478.821	781.6
479.281	775.7
479.74	778.4
480.2	776.5
480.659	781
481.119	779.7
481.579	778.1
482.038	775
482.498	785.2
482.957	777.3
483.417	780
483.876	778.3
484.336	780.8
484.795	776.6
485.254	773.4
485.714	774.5
486.173	779.7
486.632	780.7
487.091	777.2
487.551	783.6
488.01	782
488.469	773.7
488.928	776.3
489.387	780.7
489.846	778.9
490.305	778.3
490.764	781.1
491.223	779.3
491.682	780.3
492.141	779.3
492.6	781.2
493.059	779.8
493.518	779.2
493.977	778.1
494.436	775.8
494.895	777.2
495.353	777.3
495.812	776.1
496.271	778.4
496.729	775.1
497.188	780.2
497.647	780.6
498.105	781.4
498.564	776.6
499.022	776.5
499.481	776.2
499.939	785.8
500.398	781.7
500.856	774.7
501.315	780.7
501.773	781.3
502.232	772.5
502.69	776
503.148	777.9
503.606	778.3
504.065	778.2
504.523	772.4
504.981	780.4
505.439	773
505.897	779.3
506.356	771.6
506.814	773.5
507.272	777.8
507.73	778
508.188	776.3
508.646	775.9
509.104	779.2
509.562	781
510.02	771.6
510.477	774.3
510.935	783.1
511.393	778.8
511.851	774.5
512.309	772.8
512.766	777
513.224	774.9
513.682	779.5
514.139	774.8
514.597	778
515.055	772.7
515.512	774.1
515.97	777.9
516.427	778.6
516.885	776.7
517.342	778.5
517.8	776.7
518.257	777.4
518.714	779.1
519.172	779.7
519.629	778.2
520.086	776.9
520.544	772.1
521.001	775.8
521.458	782.8
521.915	778.5
522.373	775.9
522.83	779.4
523.287	777.2
523.744	773.9
524.201	772.3
524.658	776.8
525.115	776.9
525.572	779.7
526.029	775.7
526.486	772.4
526.943	777.3
527.4	778.9
527.857	773.8
528.313	774.7
528.77	774.3
529.227	780.6
529.684	779.2
530.14	772.2
530.597	776.8
531.054	771
531.51	771.3
531.967	778.6
532.423	774.4
532.88	777.2
533.337	774.2
533.793	775.6
534.25	778.9
534.706	775.9
535.162	777.8
535.619	775.4
536.075	774.3
536.531	776.5
536.988	776.7
537.444	774.1
537.9	776.8
538.356	777
538.813	776
539.269	784.1
539.725	778.1
540.181	771.7
540.637	773
541.093	780.1
541.549	771.6
542.005	779.2
542.461	771.4
542.917	775.8
543.373	774.3
543.829	778.7
544.285	776.2
544.741	779.4
545.197	775.3
545.652	777.1
546.108	777.6
546.564	777.8
547.02	777.5
547.475	772.5
547.931	773.6
548.387	777.5
548.842	774.9
549.298	773.4
549.753	779.3
550.209	780.7
550.664	779
551.12	771.6
551.575	775.6
552.031	777.6
552.486	776.3
552.941	773
553.397	780.5
553.852	780.7
554.307	775.4
554.762	778.7
555.218	777.5
555.673	777.2
556.128	773.7
556.583	778
557.038	773.3
557.493	780.2
557.948	775
558.403	774.4
558.858	780.6
559.313	778.5
559.768	778.1
560.223	773.3
560.678	773.1
561.133	774.4
561.588	778.2
562.043	780.2
562.497	775
562.952	776.4
563.407	776.1
563.862	781
564.316	779.1
564.771	773.2
565.226	778.5
565.68	774.3
566.135	776
566.589	775.6
567.044	770.6
567.498	773.7
567.953	772.9
568.407	771.5
568.862	770.7
569.316	772.5
569.77	776.6
570.225	775.5
570.679	771.2
571.133	774.7
571.587	777
572.042	776.5
572.496	777
572.95	779.2
573.404	777.5
573.858	776.6
574.312	774.5
574.766	773.8
575.22	780.6
575.674	772.8
576.128	772.8
576.582	774.2
577.036	773.6
577.49	780.4
577.944	774.4
578.398	772.7
578.852	774.9
579.305	774
579.759	775.4
580.213	777.9
580.666	768.3
581.12	776
581.574	773.8
582.027	782.2
582.481	771
582.935	773
583.388	772.7
583.842	773.2
584.295	773.5
584.748	776.8
585.202	775.8
585.655	777.3
586.109	773.4
586.562	778.1
587.015	775.3
587.469	771.5
587.922	770.1
588.375	775.6
588.828	779
589.281	777.1
589.735	776.9
590.188	772.6
590.641	774.3
591.094	774.1
591.547	773.5
592	775.6
592.453	775.4
592.906	772.9
593.359	774.4
593.812	777
594.265	780.7
594.717	774
595.17	774.5
595.623	773.8
596.076	778.3
596.529	777.4
596.981	777
597.434	771.3
597.887	777.9
598.339	779.7
598.792	771.8
599.245	775.5
599.697	778.3
600.15	777.9
600.602	781.7
601.055	773.9
601.507	779
601.959	774
602.412	777.2
602.864	778.4
603.316	773.6
603.769	770.5
604.221	772.5
604.673	776.3
605.126	776.7
605.578	776.6
606.03	777
606.482	773.9
606.934	774.3
607.386	772.6
607.838	771.7
608.29	773.9
608.742	771.7
609.194	776.7
609.646	770.9
610.098	777.8
610.55	779.4
611.002	776.3
611.454	771
611.906	774.3
612.357	777.5
612.809	775.1
613.261	778.1
613.713	778.7
614.164	771.5
614.616	773.4
615.068	773.9
615.519	771.9
615.971	774.2
616.422	767.9
616.874	776.8
617.325	778.2
617.777	776.7
618.228	772.3
618.68	772.7
619.131	773
619.582	773.4
620.034	775.9
620.485	779
620.936	775.7
621.387	775.7
621.839	775.1
622.29	773.3
622.741	778.1
623.192	772.3
623.643	774.1
624.094	777.4
624.545	775.8
624.996	775
625.447	772.1
625.898	776.1
626.349	775.1
626.8	773.1
627.251	780.8
627.702	780.1
628.153	776.5
628.604	778.4
629.054	775.5
629.505	775.5
629.956	777.5
630.406	773
630.857	778.6
631.308	769.1
631.758	774.3
632.209	773.8
632.66	777.1
633.11	777.7
633.561	771.9
634.011	773.5
634.461	781.4
634.912	778.1
635.362	774.4
635.813	774
636.263	776.8
636.713	773.6
637.164	772.9
637.614	775.7
638.064	781.1
638.514	776.6
638.964	772.4
639.415	777.8
639.865	774.9
640.315	772.1
640.765	777.3
641.215	774.8
641.665	778.5
642.115	775.6
642.565	775.4
643.015	772.6
643.465	773.8
643.915	775.3
644.364	774.7
644.814	773.6
645.264	774.4
645.714	773.5
646.163	772.5
646.613	776.4
647.063	777.4
647.513	776
647.962	778.9
648.412	780.4
648.861	770.6
649.311	776
649.76	773.9
650.21	774.6
650.659	773.7
651.109	778.4
651.558	772.9
652.008	775
652.457	775
652.906	775.4
653.356	777.7
653.805	777.2
654.254	773.2
654.703	772.8
655.152	777.7
655.602	776.9
656.051	776.5
656.5	773.7
656.949	772.3
657.398	778.4
657.847	779.8
658.296	781.2
658.745	779.1
659.194	771.9
659.643	773.2
660.092	775
660.541	770.8
660.989	778.6
661.438	772.7
661.887	773
662.336	778
662.784	774.8
663.233	775.5
663.682	776.5
664.13	777.8
664.579	775.2
665.028	775
665.476	775.9
665.925	776.3
666.373	776.4
666.822	775.5
667.27	774.4
667.719	778.5
668.167	774.6
668.615	773.7
669.064	771.2
669.512	776.5
669.96	773.8
670.408	774.4
670.857	773.8
671.305	773.6
671.753	777
672.201	775.7
672.649	776.6
673.097	775.5
673.545	778
673.993	774.5
674.441	777.3
674.889	781.1
675.337	775.4
675.785	773.5
676.233	779.8
676.681	782.1
677.129	778.6
677.577	767.8
678.025	774
678.472	778.3
678.92	770.9
679.368	773.7
679.815	777.6
680.263	774
680.711	775.7
681.158	773.8
681.606	776.8
682.053	775.8
682.501	776.1
682.948	772.7
683.396	780.1
683.843	778.1
684.291	774.4
684.738	771.4
685.185	778.2
685.633	772
686.08	773.9
686.527	773.9
686.974	773
687.422	779.8
687.869	773.8
688.316	776.5
688.763	776.5
689.21	774.7
689.657	773.7
690.104	773.2
690.551	776.4
690.998	776.4
691.445	778.2
691.892	778.6
692.339	774
692.786	776.4
693.233	775.4
693.68	775.4
694.127	776.1
694.573	775.6
695.02	778.1
695.467	782.1
695.913	775.2
696.36	774.8
696.807	773.2
697.253	770.5
697.7	777.4
698.146	773.4
698.593	771.9
699.039	778.6
699.486	773.5
699.932	776
700.379	778.6
700.825	776.2
701.272	768.6
701.718	775.6
702.164	776.8
702.61	777.2
703.057	773.7
703.503	770.7
703.949	777.6
704.395	777.3
704.841	779
705.287	775.6
705.734	774.4
706.18	782.8
706.626	776.5
707.072	782.7
707.518	779.1
707.964	779.3
708.409	776.9
708.855	774.4
709.301	773.9
709.747	776.5
710.193	777.1
710.639	774.4
711.084	775.1
711.53	779.1
711.976	777.7
712.421	773.3
712.867	775.3
713.313	779
713.758	780.2
714.204	772.6
714.649	773.1
715.095	775.8
715.54	776.1
715.986	777.6
716.431	779.9
716.877	782.9
717.322	775.2
717.767	774.9
718.213	780.2
718.658	778.8
719.103	776.6
719.548	775.6
719.994	775.8
720.439	782.6
720.884	777.3
721.329	777
721.774	773.5
722.219	773
722.664	777.6
723.109	778
723.554	777.1
723.999	776.5
724.444	776.8
724.889	776.6
725.334	776.5
725.779	776.1
726.223	778.4
726.668	776
727.113	780.8
727.558	776.6
728.002	775
728.447	779.6
728.892	776
729.336	772.4
729.781	777.3
730.225	777
730.67	779.9
731.114	775.7
731.559	775.1
732.003	780.1
732.448	775.3
732.892	773.2
733.337	774
733.781	779
734.225	777.1
734.67	776.5
735.114	774.6
735.558	776.2
736.002	774
736.446	773.1
736.891	775.3
737.335	775
737.779	777.7
738.223	779.1
738.667	777.1
739.111	774.7
739.555	775.9
739.999	774.6
740.443	775.6
740.887	778.9
741.33	778.2
741.774	772.8
742.218	775.9
742.662	774.4
743.106	776.5
743.549	776.3
743.993	779.9
744.437	775.4
744.88	776.9
745.324	777.6
745.768	777.1
746.211	780
746.655	770.6
747.098	774.2
747.542	778.7
747.985	778.2
748.429	776.5
748.872	771.7
749.315	778.4
749.759	776.6
750.202	771.9
750.645	777.6
751.089	774.1
751.532	779
751.975	773.2
752.418	776.4
752.861	777.7
753.305	777.2
753.748	778.7
754.191	777.6
754.634	777.2
755.077	777
755.52	772.8
755.963	776.4
756.406	776.7
756.849	775.8
757.291	778.5
757.734	777.4
758.177	775.9
758.62	771.4
759.063	777.1
759.505	779.7
759.948	775.2
760.391	774.9
760.833	780.4
761.276	775.2
761.719	775.7
762.161	770.9
762.604	776.8
763.046	781.1
763.489	773
763.931	779.5
764.374	775.8
764.816	778.9
765.258	776.5
765.701	775
766.143	772.7
766.585	778
767.028	778.4
767.47	779.3
767.912	780
768.354	776.4
768.796	776.6
769.238	776.5
769.681	778.7
770.123	779.5
770.565	774.3
771.007	779.1
771.449	775.3
771.891	774.9
772.333	774.1
772.774	779.6
773.216	777.9
773.658	778.1
774.1	777.6
774.542	778.5
774.984	778.3
775.425	779
775.867	776.9
776.309	777.1
776.75	774.4
777.192	773.6
777.634	778
778.075	774.9
778.517	780.2
778.958	778.6
779.4	775.7
779.841	778
780.283	780.9
780.724	784.9
781.165	777
781.607	778.7
782.048	779
782.489	781.5
782.931	778.9
783.372	778.7
783.813	773.7
784.254	778.6
784.695	773.8
785.136	778.2
785.578	774.1
786.019	780.1
786.46	775.4
786.901	776.3
787.342	778
787.783	775.3
788.224	775.6
788.664	780.4
789.105	776
789.546	776.7
789.987	772.8
790.428	780.5
790.869	777.2
791.309	777.2
791.75	778.3
792.191	777.8
792.631	782.4
793.072	774.8
793.513	775.2
793.953	780.3
794.394	778.3
794.834	780.1
795.275	776.5
795.715	783
796.156	779.7
796.596	776.9
797.036	780.7
797.477	774
797.917	780.1
798.357	780.4
798.798	775.5
799.238	775.2
799.678	775.4
800.118	773.7
800.558	778
