节点UV_HRD08281_00027.txt的数据
Date: Wed Jan 15 10:42:02 CST 2020
User: lab329
Spectrometer: HR+D0828
触发模式: 0
积分时间 (秒): 1.000000E-3
Scans to average: 10
启用暗噪声校正: false
启用非线性校正: false
滑动平均宽度: 0
X轴模式: Wavelengths
Number of Pixels in Spectrum: 2048
>>>>>Begin Spectral Data<<<<<
186.281	776.7
186.758	776.7
187.234	776.7
187.71	779.2
188.187	779.7
188.663	780.5
189.139	777
189.615	778.3
190.091	778
190.567	778.6
191.043	778.9
191.519	777.7
191.995	778.9
192.471	779.7
192.947	781.7
193.423	781.5
193.899	783.4
194.375	777
194.851	779.7
195.327	777.5
195.803	777.9
196.278	780.3
196.754	783.8
197.23	778.3
197.706	780.1
198.181	776.3
198.657	777.4
199.133	774.9
199.608	776.5
200.084	779.8
200.559	778.8
201.035	776.8
201.51	777.3
201.986	781.9
202.461	779
202.937	780.6
203.412	779.7
203.887	774.5
204.363	776.3
204.838	775
205.313	780.7
205.789	780.7
206.264	780.2
206.739	775.2
207.214	778.3
207.689	777.1
208.165	774.5
208.64	778
209.115	776.7
209.59	778.8
210.065	775.3
210.54	778.5
211.015	776.5
211.49	774.3
211.965	774.3
212.44	777.3
212.914	778
213.389	777.8
213.864	778.8
214.339	780.7
214.814	776.1
215.288	777.6
215.763	778.7
216.238	779.4
216.712	776.3
217.187	775.7
217.662	780.1
218.136	779.1
218.611	778.5
219.085	775.8
219.56	779.9
220.034	778.5
220.509	779.3
220.983	780.3
221.458	776.6
221.932	773.1
222.406	778.5
222.881	776.8
223.355	776.3
223.829	776.9
224.303	778.2
224.778	778.1
225.252	777.7
225.726	778.4
226.2	779.8
226.674	779.3
227.148	772.6
227.622	777
228.096	779
228.57	777.3
229.044	780.5
229.518	778.5
229.992	783.2
230.466	780.4
230.94	778
231.414	781.3
231.888	775.7
232.361	774.9
232.835	777.7
233.309	776.1
233.783	779.4
234.256	777.2
234.73	775.7
235.204	780.5
235.677	777.4
236.151	779
236.624	783
237.098	775.1
237.571	785.9
238.045	783.9
238.518	778.3
238.992	777.2
239.465	776.5
239.939	774.9
240.412	779
240.885	776.2
241.359	777.3
241.832	779.3
242.305	779.7
242.778	780.7
243.251	780
243.725	781
244.198	781.2
244.671	783.6
245.144	779.3
245.617	782.7
246.09	779.2
246.563	782.1
247.036	777.2
247.509	782.9
247.982	779.8
248.455	778.8
248.928	781.9
249.4	781
249.873	782.1
250.346	776.7
250.819	774.2
251.292	776.5
251.764	781.1
252.237	774.7
252.71	775.9
253.182	772.9
253.655	777.2
254.127	779.4
254.6	780.1
255.073	779.2
255.545	782
256.018	781.1
256.49	776.8
256.962	782.2
257.435	778.6
257.907	781.8
258.379	779.3
258.852	780.7
259.324	777.9
259.796	777.1
260.269	774.7
260.741	775.5
261.213	781.5
261.685	778.1
262.157	778.9
262.629	781.1
263.101	782.4
263.574	777
264.046	780.5
264.518	780.5
264.99	780.2
265.461	777.1
265.933	781.2
266.405	779.8
266.877	779.4
267.349	785.8
267.821	780.8
268.293	775
268.764	780.1
269.236	773.6
269.708	778
270.18	782.1
270.651	781.3
271.123	779.2
271.594	775.7
272.066	782.3
272.538	774
273.009	773.9
273.481	773.1
273.952	779.1
274.423	781.3
274.895	776.2
275.366	779.4
275.838	775.5
276.309	775.9
276.78	782.6
277.252	781.1
277.723	783.3
278.194	777.9
278.665	784.6
279.136	778.8
279.608	778.5
280.079	775.1
280.55	783.4
281.021	775.8
281.492	778.6
281.963	778.2
282.434	778.6
282.905	776.8
283.376	778.3
283.847	778.1
284.318	784.1
284.789	780.4
285.259	776
285.73	773.2
286.201	774.5
286.672	782.2
287.143	780.9
287.613	780.3
288.084	776.1
288.555	778.8
289.025	778.9
289.496	774.2
289.966	780
290.437	777.6
290.907	777.8
291.378	780.9
291.848	777.8
292.319	782.3
292.789	775.6
293.26	778.5
293.73	777.4
294.2	781.4
294.671	779.7
295.141	783.5
295.611	779.6
296.081	781.6
296.552	778.2
297.022	778
297.492	776.7
297.962	774.7
298.432	778.5
298.902	776.5
299.372	777.1
299.842	778.3
300.312	777.3
300.782	776.5
301.252	780.8
301.722	777.9
302.192	779
302.662	779.5
303.132	780
303.602	779.6
304.071	779.5
304.541	779.8
305.011	779.2
305.481	775.6
305.95	777
306.42	781.4
306.889	781.5
307.359	780
307.829	782.9
308.298	780.5
308.768	781
309.237	778.8
309.707	781.7
310.176	772.4
310.645	772.7
311.115	780.2
311.584	784.3
312.054	779.6
312.523	781.4
312.992	775.6
313.461	777.2
313.931	777.2
314.4	777.4
314.869	780
315.338	784.1
315.807	777.7
316.276	780.8
316.745	777.7
317.214	779.5
317.683	780
318.152	779.4
318.621	778.1
319.09	780.5
319.559	782.6
320.028	781.3
320.497	779.1
320.966	779.3
321.435	782.1
321.903	779.8
322.372	776.2
322.841	779.6
323.31	778.5
323.778	777.9
324.247	778.5
324.715	783
325.184	785.2
325.653	776
326.121	782.6
326.59	780.6
327.058	776.8
327.527	775.6
327.995	777
328.463	774.7
328.932	784.4
329.4	778.2
329.868	781
330.337	778.6
330.805	780.5
331.273	779.9
331.741	779
332.21	781.6
332.678	783.3
333.146	782.2
333.614	780.3
334.082	782.7
334.55	776.7
335.018	777.8
335.486	784.5
335.954	781.6
336.422	777.6
336.89	780.6
337.358	779.7
337.826	782.1
338.294	781.7
338.762	776.7
339.229	780
339.697	782.7
340.165	781.2
340.633	778.6
341.1	779.1
341.568	780.7
342.035	779.9
342.503	782.1
342.971	779.3
343.438	779.9
343.906	778
344.373	778.1
344.841	780.6
345.308	780.2
345.776	780.5
346.243	779.3
346.71	777.2
347.178	780.5
347.645	779.3
348.112	780.6
348.58	779.5
349.047	782.2
349.514	776.3
349.981	777.8
350.448	784.4
350.915	773.9
351.383	778.6
351.85	778.6
352.317	782.3
352.784	783.8
353.251	780.5
353.718	782.4
354.185	784.1
354.651	778.1
355.118	780.2
355.585	778.5
356.052	778.1
356.519	779.6
356.986	782.9
357.452	783.9
357.919	777.3
358.386	782.1
358.853	779.9
359.319	779.1
359.786	781
360.252	783.1
360.719	781.2
361.185	784.9
361.652	780.3
362.118	778.7
362.585	782.3
363.051	778.1
363.518	779
363.984	782.5
364.451	778.6
364.917	782.5
365.383	787.7
365.849	785
366.316	781
366.782	782.5
367.248	784.2
367.714	782.3
368.18	780.5
368.647	782.4
369.113	781.4
369.579	778.4
370.045	778.4
370.511	783.5
370.977	777.9
371.443	781
371.909	777.3
372.374	779.9
372.84	776.2
373.306	781.6
373.772	777.7
374.238	776.1
374.704	779.5
375.169	777.5
375.635	780.5
376.101	784.7
376.566	779.2
377.032	782.6
377.498	777.7
377.963	778.9
378.429	778
378.894	778.1
379.36	779.6
379.825	776.3
380.291	776.7
380.756	779.6
381.222	777.8
381.687	782.8
382.152	778
382.618	780.1
383.083	782.4
383.548	780.1
384.013	779
384.479	780.4
384.944	784.2
385.409	773.1
385.874	776.7
386.339	777.7
386.804	779.4
387.269	774.4
387.734	776.3
388.199	779.7
388.664	783.1
389.129	780.3
389.594	777
390.059	778.9
390.524	780.9
390.989	778.3
391.453	778.8
391.918	779.5
392.383	779.4
392.848	777.4
393.312	780
393.777	780.2
394.242	782.4
394.706	777.2
395.171	781
395.635	781
396.1	778.1
396.565	782
397.029	783.7
397.493	782.2
397.958	781.5
398.422	780
398.887	782.6
399.351	780.7
399.815	780.8
400.28	778.6
400.744	783.6
401.208	783
401.672	783.3
402.137	783.3
402.601	779.3
403.065	783.1
403.529	777.2
403.993	777.9
404.457	779.8
404.921	784.1
405.385	780.4
405.849	778.9
406.313	782.9
406.777	784.1
407.241	774.2
407.705	780
408.169	782.1
408.632	779.8
409.096	783.8
409.56	780.4
410.024	778.6
410.487	781.6
410.951	782.3
411.415	778.8
411.878	783
412.342	777.7
412.806	778.3
413.269	781.2
413.733	782.8
414.196	778.9
414.66	781.1
415.123	782.1
415.587	781.4
416.05	778.6
416.513	778
416.977	781.4
417.44	786.6
417.903	780.5
418.366	783.8
418.83	787.6
419.293	782.6
419.756	782.4
420.219	780.3
420.682	780.4
421.145	780.9
421.608	779.2
422.072	781.5
422.535	781.8
422.998	782.2
423.46	781.1
423.923	782.2
424.386	776.9
424.849	780.9
425.312	780.8
425.775	779.9
426.238	779.5
426.7	785
427.163	781.6
427.626	776.9
428.089	781.8
428.551	775.5
429.014	780.3
429.477	780.4
429.939	783.3
430.402	780.5
430.864	783.3
431.327	782.5
431.789	784.6
432.252	777.5
432.714	782.1
433.176	784.9
433.639	786.1
434.101	782.7
434.563	780.6
435.026	784.3
435.488	788.1
435.95	781.7
436.412	780.6
436.875	779.8
437.337	778.2
437.799	783.8
438.261	780.2
438.723	782.3
439.185	788
439.647	784
440.109	783.9
440.571	782.7
441.033	777.9
441.495	784.7
441.957	785.7
442.419	783.1
442.881	788.2
443.342	785.5
443.804	789.6
444.266	787.1
444.728	782.4
445.189	782.4
445.651	787.4
446.113	785
446.574	786.7
447.036	789.8
447.497	784.4
447.959	792.3
448.421	786.2
448.882	781.3
449.343	788.3
449.805	786.9
450.266	790.6
450.728	789.2
451.189	791.1
451.65	794.5
452.112	790.4
452.573	792.2
453.034	794.8
453.495	795.3
453.957	798.3
454.418	799.3
454.879	797.4
455.34	806.3
455.801	797.8
456.262	806.9
456.723	805.5
457.184	815.4
457.645	815.1
458.106	824.7
458.567	827.2
459.028	833.4
459.489	839
459.95	850.2
460.41	862
460.871	871.1
461.332	893.2
461.793	921.4
462.253	946.1
462.714	990.1
463.175	1033.9
463.635	1092.4
464.096	1166.6
464.556	1251.3
465.017	1360
465.478	1466.2
465.938	1606.3
466.398	1784.6
466.859	1984.5
467.319	2217.9
467.78	2503.3
468.24	2831.5
468.7	3249
469.161	3671.7
469.621	4177.1
470.081	4777.8
470.541	5378.4
471.002	6133.3
471.462	6876.7
471.922	7662.5
472.382	8376.7
472.842	9276.6
473.302	10113.7
473.762	11010.5
474.222	12036.3
474.682	13237.9
475.142	14086.7
475.602	14856.6
476.062	15382.1
476.522	15802.4
476.982	16018
477.442	16091.1
477.901	16237.9
478.361	16383
478.821	16383
479.281	16383
479.74	16383
480.2	16383
480.659	16383
481.119	16273.9
481.579	15374.1
482.038	13526.7
482.498	9379.5
482.957	5000.8
483.417	2481
483.876	1453.2
484.336	1076.1
484.795	946.5
485.254	892.6
485.714	864
486.173	860
486.632	856.6
487.091	850.7
487.551	848.3
488.01	840.9
488.469	838
488.928	842.2
489.387	836.6
489.846	838.2
490.305	841.3
490.764	837
491.223	842.5
491.682	833
492.141	838.5
492.6	833.2
493.059	831.4
493.518	833.1
493.977	824.3
494.436	826.3
494.895	827.8
495.353	825.3
495.812	822.6
496.271	828.7
496.729	818.1
497.188	823.7
497.647	820
498.105	816.2
498.564	819.6
499.022	815.8
499.481	809.5
499.939	809.7
500.398	804.7
500.856	801.6
501.315	799.5
501.773	798.3
502.232	795.6
502.69	790.9
503.148	793.9
503.606	792.9
504.065	789.7
504.523	787.6
504.981	788
505.439	786.1
505.897	784.6
506.356	781.8
506.814	783.2
507.272	785.2
507.73	781
508.188	781
508.646	784.7
509.104	776
509.562	783.7
510.02	782.5
510.477	780.3
510.935	782.7
511.393	777.3
511.851	782.1
512.309	781.9
512.766	782.2
513.224	776.1
513.682	781.9
514.139	779.2
514.597	781.6
515.055	780.8
515.512	779.8
515.97	780.2
516.427	781.5
516.885	780.9
517.342	778.7
517.8	775
518.257	780.6
518.714	777.7
519.172	781
519.629	781.8
520.086	781
520.544	778
521.001	777.8
521.458	780.2
521.915	777.7
522.373	778
522.83	783.3
523.287	786
523.744	777.6
524.201	774.7
524.658	779.5
525.115	775.6
525.572	777.8
526.029	781.3
526.486	781.2
526.943	777.3
527.4	774.8
527.857	780.3
528.313	780.9
528.77	776.9
529.227	780.1
529.684	781
530.14	779.5
530.597	774.6
531.054	775.7
531.51	777.4
531.967	783.1
532.423	778.2
532.88	775.7
533.337	780.4
533.793	779.6
534.25	773.8
534.706	777.6
535.162	780.5
535.619	780.8
536.075	774.9
536.531	774.2
536.988	778.2
537.444	780.8
537.9	775.9
538.356	779.3
538.813	778.7
539.269	777.1
539.725	777.8
540.181	780.3
540.637	780
541.093	772.3
541.549	774.8
542.005	781
542.461	777.6
542.917	778.1
543.373	777.5
543.829	779.9
544.285	780.5
544.741	779.5
545.197	778.5
545.652	777.3
546.108	778.3
546.564	781.8
547.02	778.7
547.475	780.5
547.931	775.9
548.387	775.7
548.842	782.1
549.298	780.1
549.753	777.5
550.209	778
550.664	776.9
551.12	775.1
551.575	782.2
552.031	773.9
552.486	776.1
552.941	776.5
553.397	776.9
553.852	778.2
554.307	773.4
554.762	773
555.218	780.1
555.673	778.1
556.128	780.4
556.583	777.7
557.038	772
557.493	774.3
557.948	778.6
558.403	775.6
558.858	774
559.313	777.8
559.768	777.2
560.223	782.3
560.678	778.5
561.133	774.4
561.588	781.6
562.043	779.6
562.497	779.3
562.952	771.8
563.407	783.2
563.862	780.3
564.316	775.7
564.771	776.6
565.226	776.5
565.68	777.4
566.135	775.2
566.589	775.6
567.044	777.9
567.498	776.8
567.953	773.1
568.407	775.8
568.862	776.7
569.316	772.3
569.77	772.8
570.225	779.1
570.679	779.5
571.133	779.5
571.587	777.6
572.042	774.5
572.496	778.4
572.95	775.4
573.404	774.7
573.858	777.3
574.312	779.3
574.766	780
575.22	776.4
575.674	775.2
576.128	778.4
576.582	771.3
577.036	770.6
577.49	771.6
577.944	779.2
578.398	774.7
578.852	776.5
579.305	775.3
579.759	776.8
580.213	776
580.666	775.4
581.12	771.9
581.574	774
582.027	772.4
582.481	772.8
582.935	777.5
583.388	776.5
583.842	776.5
584.295	775.7
584.748	775.8
585.202	772.8
585.655	775
586.109	777.6
586.562	780.2
587.015	781.4
587.469	774.5
587.922	774.9
588.375	780.3
588.828	781.3
589.281	772.2
589.735	775.1
590.188	775.6
590.641	776.1
591.094	780.4
591.547	777.3
592	776.9
592.453	779.3
592.906	774.8
593.359	777.3
593.812	780.3
594.265	774.8
594.717	775.6
595.17	775.4
595.623	778.4
596.076	773.5
596.529	771
596.981	775.1
597.434	773
597.887	769.1
598.339	774.7
598.792	772.8
599.245	779.4
599.697	777.4
600.15	776.5
600.602	779.9
601.055	775.3
601.507	778.6
601.959	779.1
602.412	780.7
602.864	779.4
603.316	776
603.769	775.1
604.221	774.4
604.673	775.4
605.126	772.7
605.578	775
606.03	774.7
606.482	774.6
606.934	770.2
607.386	777
607.838	773.2
608.29	776.1
608.742	773.8
609.194	780.3
609.646	774.4
610.098	777.1
610.55	778.3
611.002	774.5
611.454	774
611.906	780.1
612.357	779.4
612.809	781.7
613.261	773.7
613.713	774.3
614.164	775.1
614.616	778.7
615.068	777.8
615.519	772.7
615.971	780.9
616.422	778.2
616.874	774.5
617.325	776.2
617.777	772.7
618.228	778.5
618.68	779.5
619.131	778.1
619.582	773.7
620.034	776.4
620.485	774.7
620.936	776
621.387	775.6
621.839	773.7
622.29	779.1
622.741	774.3
623.192	779.1
623.643	776.8
624.094	774.4
624.545	772.1
624.996	779.9
625.447	774.5
625.898	779.4
626.349	775.7
626.8	779.2
627.251	775.1
627.702	777.7
628.153	769
628.604	774.4
629.054	777.6
629.505	774.2
629.956	777.8
630.406	777.4
630.857	777.4
631.308	776.4
631.758	774.9
632.209	773.2
632.66	780.3
633.11	777.1
633.561	781.8
634.011	777.3
634.461	775.7
634.912	773.8
635.362	779.9
635.813	778.1
636.263	775.4
636.713	774.8
637.164	773.7
637.614	777.1
638.064	778.7
638.514	771.6
638.964	774.1
639.415	779.1
639.865	777.3
640.315	774
640.765	777
641.215	774.5
641.665	776.2
642.115	774.8
642.565	778.3
643.015	777.3
643.465	774.6
643.915	779.7
644.364	775.4
644.814	775.8
645.264	773.4
645.714	774.4
646.163	777.5
646.613	772.1
647.063	776.7
647.513	777.5
647.962	775.6
648.412	777.3
648.861	774.8
649.311	777.4
649.76	775.4
650.21	776.7
650.659	774.7
651.109	778.3
651.558	777.1
652.008	773.7
652.457	774.3
652.906	776.7
653.356	772.4
653.805	775.3
654.254	777.5
654.703	771
655.152	783
655.602	782
656.051	777.3
656.5	774.4
656.949	777.5
657.398	776.6
657.847	773.2
658.296	779.8
658.745	780.1
659.194	774.3
659.643	776.8
660.092	773.5
660.541	780.7
660.989	772.4
661.438	776.9
661.887	778
662.336	777
662.784	773.5
663.233	776.8
663.682	777.7
664.13	775.5
664.579	778
665.028	775.2
665.476	773
665.925	774.4
666.373	780.7
666.822	777.5
667.27	774.6
667.719	771
668.167	771.4
668.615	779.3
669.064	773
669.512	779.5
669.96	775.5
670.408	782.4
670.857	773.6
671.305	777.9
671.753	779.7
672.201	773.8
672.649	777
673.097	777.2
673.545	776.8
673.993	778.1
674.441	782.1
674.889	772.9
675.337	776.2
675.785	778.9
676.233	775.6
676.681	777.5
677.129	776
677.577	779.2
678.025	775.9
678.472	777.7
678.92	772.8
679.368	780.1
679.815	775.8
680.263	775.7
680.711	782.3
681.158	777.9
681.606	778.3
682.053	779.6
682.501	775
682.948	779.4
683.396	771.5
683.843	772.8
684.291	773.4
684.738	779
685.185	776
685.633	777.7
686.08	776.5
686.527	775.4
686.974	779.3
687.422	776.8
687.869	778.5
688.316	773
688.763	776.5
689.21	775.8
689.657	778.2
690.104	773.3
690.551	773
690.998	773
691.445	776.5
691.892	775.7
692.339	780.6
692.786	780.5
693.233	782.4
693.68	775.9
694.127	772.4
694.573	775.7
695.02	777.9
695.467	780.9
695.913	776
696.36	781.2
696.807	780.3
697.253	781.9
697.7	773.2
698.146	777.2
698.593	775.6
699.039	775.2
699.486	776.2
699.932	774.5
700.379	782.8
700.825	780.9
701.272	772.5
701.718	777.4
702.164	775.5
702.61	778
703.057	776.4
703.503	777.9
703.949	776.9
704.395	775.7
704.841	779.7
705.287	780.4
705.734	781
706.18	780
706.626	776.2
707.072	772
707.518	772.6
707.964	778
708.409	776.9
708.855	776.7
709.301	782.5
709.747	778.3
710.193	780.6
710.639	771.2
711.084	780.8
711.53	779.9
711.976	779
712.421	777.7
712.867	775.5
713.313	775.1
713.758	773.6
714.204	771.5
714.649	776.4
715.095	771.8
715.54	775.5
715.986	778.7
716.431	778.7
716.877	779.2
717.322	775.6
717.767	778.1
718.213	772
718.658	775.2
719.103	778.7
719.548	778
719.994	776.6
720.439	774.9
720.884	774.3
721.329	776.4
721.774	779.1
722.219	775.6
722.664	779.7
723.109	773.7
723.554	780.3
723.999	775.6
724.444	772.9
724.889	776.5
725.334	780.1
725.779	776.9
726.223	777.7
726.668	775.6
727.113	775.7
727.558	778.6
728.002	774.1
728.447	781.5
728.892	779
729.336	781.9
729.781	780.4
730.225	774.8
730.67	773.4
731.114	777.9
731.559	776.5
732.003	780
732.448	779.4
732.892	776.3
733.337	775.8
733.781	777.4
734.225	777
734.67	778.6
735.114	776.7
735.558	780.2
736.002	781.1
736.446	774.8
736.891	780.2
737.335	774.4
737.779	776.6
738.223	780.3
738.667	778.3
739.111	775.4
739.555	778.3
739.999	778.2
740.443	780.9
740.887	777
741.33	778.6
741.774	779
742.218	775.2
742.662	775.1
743.106	776.4
743.549	777.4
743.993	777.5
744.437	775.3
744.88	778.8
745.324	775.2
745.768	775.6
746.211	779.1
746.655	774
747.098	776.8
747.542	780.8
747.985	779.1
748.429	773.8
748.872	780.2
749.315	774
749.759	774.4
750.202	771
750.645	768.8
751.089	781.7
751.532	779.9
751.975	778.1
752.418	775.5
752.861	778.7
753.305	771.4
753.748	772.4
754.191	778.5
754.634	774.5
755.077	777.7
755.52	778
755.963	775.1
756.406	780.5
756.849	777.5
757.291	774.9
757.734	778.2
758.177	775.7
758.62	779.8
759.063	773.8
759.505	780.8
759.948	776.6
760.391	775
760.833	777.5
761.276	775.9
761.719	773.7
762.161	779.7
762.604	779.4
763.046	777.6
763.489	775.9
763.931	776.5
764.374	780.8
764.816	776.2
765.258	778
765.701	781.1
766.143	775.7
766.585	777
767.028	776.8
767.47	776.4
767.912	781.3
768.354	773.3
768.796	774.1
769.238	775.2
769.681	779.1
770.123	779.2
770.565	779.8
771.007	779.4
771.449	773.3
771.891	779.2
772.333	781.1
772.774	781.2
773.216	776.8
773.658	771
774.1	775.9
774.542	776.4
774.984	780
775.425	774.2
775.867	782.4
776.309	776.3
776.75	775.7
777.192	782.7
777.634	776.4
778.075	776.4
778.517	779.7
778.958	778.8
779.4	776.1
779.841	779.7
780.283	777.2
780.724	774.6
781.165	775.5
781.607	776
782.048	779.4
782.489	776.3
782.931	776.5
783.372	777.5
783.813	778.9
784.254	776.1
784.695	777.5
785.136	778.8
785.578	777.3
786.019	780.8
786.46	775.7
786.901	778
787.342	780.4
787.783	776
788.224	776.2
788.664	780.8
789.105	772.1
789.546	780.7
789.987	781.4
790.428	778.2
790.869	772.7
791.309	773.1
791.75	775.9
792.191	774.7
792.631	779.1
793.072	781
793.513	775.1
793.953	777.2
794.394	779.4
794.834	775.6
795.275	775
795.715	774.5
796.156	775
796.596	774.6
797.036	773.6
797.477	774.8
797.917	785.1
798.357	778.2
798.798	782.7
799.238	773.7
799.678	780.1
800.118	778.9
800.558	775.9
