节点UV_HRD08281_00019.txt的数据
Date: Wed Jan 15 10:37:05 CST 2020
User: lab329
Spectrometer: HR+D0828
触发模式: 0
积分时间 (秒): 4.000000E-3
Scans to average: 10
启用暗噪声校正: false
启用非线性校正: false
滑动平均宽度: 0
X轴模式: Wavelengths
Number of Pixels in Spectrum: 2048
>>>>>Begin Spectral Data<<<<<
186.281	780.7
186.758	780.7
187.234	780.7
187.71	782.2
188.187	780.7
188.663	776.1
189.139	778.6
189.615	779.9
190.091	784
190.567	780.4
191.043	779.6
191.519	780.5
191.995	777.8
192.471	780.9
192.947	781.8
193.423	782.4
193.899	784.9
194.375	789.4
194.851	780.4
195.327	785.1
195.803	777.1
196.278	777.3
196.754	778.8
197.23	781.9
197.706	776.9
198.181	783
198.657	781.4
199.133	776.7
199.608	780.4
200.084	780.9
200.559	780.6
201.035	783.7
201.51	779.1
201.986	778.4
202.461	781
202.937	784.2
203.412	774.8
203.887	776.1
204.363	777.4
204.838	771
205.313	780.4
205.789	777.1
206.264	780
206.739	778.5
207.214	778.1
207.689	780.6
208.165	775.2
208.64	777.8
209.115	779.1
209.59	779
210.065	780.7
210.54	778.5
211.015	782.2
211.49	779
211.965	778
212.44	778.2
212.914	776.2
213.389	776.7
213.864	779.9
214.339	782.3
214.814	782.3
215.288	777.6
215.763	780.9
216.238	780.5
216.712	775.6
217.187	777.4
217.662	780
218.136	776.3
218.611	774.6
219.085	776.6
219.56	784.4
220.034	777.5
220.509	776.8
220.983	779.1
221.458	773.3
221.932	775.3
222.406	776.2
222.881	776.3
223.355	783.6
223.829	773.4
224.303	776.5
224.778	779.1
225.252	778.4
225.726	777.8
226.2	779.2
226.674	778.7
227.148	780.3
227.622	780
228.096	778.7
228.57	781.4
229.044	779.2
229.518	779.5
229.992	779.1
230.466	784
230.94	778.6
231.414	776.5
231.888	780.2
232.361	783.6
232.835	777.7
233.309	776.3
233.783	778.5
234.256	777.3
234.73	780.5
235.204	778.3
235.677	777
236.151	781.3
236.624	782
237.098	779.7
237.571	782.2
238.045	779.4
238.518	777.2
238.992	778.3
239.465	778.6
239.939	779.3
240.412	773.2
240.885	777.7
241.359	778.5
241.832	777.1
242.305	778.7
242.778	777.2
243.251	776.9
243.725	778.2
244.198	782.2
244.671	777.1
245.144	781.1
245.617	778.9
246.09	781
246.563	780.3
247.036	781.9
247.509	777.6
247.982	778.8
248.455	779.7
248.928	779
249.4	779.1
249.873	779.1
250.346	776.7
250.819	774.2
251.292	783.2
251.764	781.5
252.237	783.2
252.71	779.3
253.182	780.6
253.655	785.8
254.127	784.1
254.6	775.8
255.073	780.7
255.545	781.4
256.018	779.7
256.49	782.7
256.962	781
257.435	778.9
257.907	779.9
258.379	781.7
258.852	777.6
259.324	779.3
259.796	781.6
260.269	781.7
260.741	781.4
261.213	780.3
261.685	780.7
262.157	775.7
262.629	775.8
263.101	778.4
263.574	782.3
264.046	776.6
264.518	779.4
264.99	779.3
265.461	779.1
265.933	785.3
266.405	780
266.877	778.7
267.349	782.4
267.821	779.1
268.293	782.3
268.764	777.1
269.236	786.3
269.708	786.2
270.18	781.8
270.651	777.9
271.123	778.8
271.594	780.1
272.066	780
272.538	779.7
273.009	777.6
273.481	780.9
273.952	776.6
274.423	780
274.895	776.6
275.366	779.6
275.838	781.1
276.309	780
276.78	781.7
277.252	777.7
277.723	783.5
278.194	785.8
278.665	781.7
279.136	776.1
279.608	775.4
280.079	779.7
280.55	785.9
281.021	782.8
281.492	781.9
281.963	781.7
282.434	781.9
282.905	777.8
283.376	777.3
283.847	784
284.318	780.9
284.789	783.9
285.259	780.6
285.73	784.3
286.201	782.6
286.672	781.5
287.143	781.7
287.613	778.6
288.084	781.3
288.555	780.5
289.025	780.4
289.496	782.1
289.966	782.4
290.437	779.7
290.907	777.6
291.378	783.3
291.848	782.1
292.319	779.7
292.789	781.2
293.26	786
293.73	784.6
294.2	782.3
294.671	778.8
295.141	772.8
295.611	781.1
296.081	779.3
296.552	781.9
297.022	781.6
297.492	784.4
297.962	777.3
298.432	777.7
298.902	780.7
299.372	775
299.842	777.1
300.312	783
300.782	783
301.252	782.5
301.722	782.1
302.192	784.5
302.662	781.3
303.132	776.2
303.602	779.4
304.071	786
304.541	788.5
305.011	782.2
305.481	783.3
305.95	781
306.42	784.3
306.889	783.1
307.359	782.9
307.829	776
308.298	783.2
308.768	780.6
309.237	777.9
309.707	779.1
310.176	786.3
310.645	784.7
311.115	784.3
311.584	781.6
312.054	780.4
312.523	783.1
312.992	780.3
313.461	781.4
313.931	781.7
314.4	780.1
314.869	783.8
315.338	774.8
315.807	781.7
316.276	781.2
316.745	786.6
317.214	784.8
317.683	778.2
318.152	778.9
318.621	781.7
319.09	778.1
319.559	778.4
320.028	777.3
320.497	779.2
320.966	780
321.435	786.3
321.903	779.5
322.372	783.4
322.841	780.1
323.31	782.6
323.778	781.2
324.247	782
324.715	776.6
325.184	779.9
325.653	784.4
326.121	782.4
326.59	781.9
327.058	782.6
327.527	781.2
327.995	780.2
328.463	783.5
328.932	783.6
329.4	779.2
329.868	782.8
330.337	784.7
330.805	777.7
331.273	783.6
331.741	780.4
332.21	780.6
332.678	779.6
333.146	780
333.614	783.7
334.082	783.1
334.55	779.2
335.018	780.8
335.486	781.8
335.954	784.8
336.422	781.7
336.89	783.9
337.358	781.9
337.826	781.7
338.294	786
338.762	781
339.229	780.4
339.697	777.5
340.165	780.7
340.633	784.1
341.1	784.6
341.568	785.2
342.035	782.4
342.503	783.4
342.971	780.2
343.438	777.9
343.906	779.3
344.373	781.2
344.841	783.3
345.308	782.9
345.776	777
346.243	782.2
346.71	778.7
347.178	782.7
347.645	783.2
348.112	780.7
348.58	778.8
349.047	779.2
349.514	782.4
349.981	780.2
350.448	780.4
350.915	781.4
351.383	786.2
351.85	784.2
352.317	782.2
352.784	785.5
353.251	783
353.718	779.8
354.185	782.1
354.651	784.5
355.118	783.8
355.585	779.7
356.052	783.2
356.519	782.7
356.986	782.4
357.452	786.2
357.919	785
358.386	780
358.853	779.9
359.319	781.8
359.786	782.3
360.252	788
360.719	775.1
361.185	773.1
361.652	785.2
362.118	779.5
362.585	783.6
363.051	784.6
363.518	778.5
363.984	784.3
364.451	783.4
364.917	783.8
365.383	784.5
365.849	784.6
366.316	784.1
366.782	782.2
367.248	781.8
367.714	782
368.18	784.3
368.647	781.6
369.113	777.3
369.579	780.9
370.045	783.1
370.511	781
370.977	781.7
371.443	785.8
371.909	782.9
372.374	784.8
372.84	781.8
373.306	784.3
373.772	780
374.238	787.4
374.704	782.9
375.169	785.2
375.635	779.2
376.101	780.3
376.566	778.3
377.032	781.9
377.498	776.8
377.963	785.3
378.429	781.4
378.894	784.9
379.36	779.5
379.825	777.2
380.291	781.5
380.756	786.4
381.222	778.2
381.687	784.6
382.152	783.6
382.618	785.1
383.083	786.4
383.548	788.2
384.013	783
384.479	788.1
384.944	778.5
385.409	781.6
385.874	779.5
386.339	781.8
386.804	786.4
387.269	782.2
387.734	784.3
388.199	782.5
388.664	784
389.129	780.4
389.594	783.9
390.059	782.9
390.524	781.2
390.989	784.5
391.453	788.8
391.918	782.8
392.383	785.2
392.848	786.2
393.312	784
393.777	778.9
394.242	785.8
394.706	781.7
395.171	782.5
395.635	783.7
396.1	786.2
396.565	790.6
397.029	785.7
397.493	787.5
397.958	784
398.422	784.5
398.887	787.6
399.351	782.6
399.815	784.5
400.28	790
400.744	784.6
401.208	784.7
401.672	784.2
402.137	784.4
402.601	786.1
403.065	783.5
403.529	784.5
403.993	782.5
404.457	785.4
404.921	787.4
405.385	788.4
405.849	789.4
406.313	789.1
406.777	791.7
407.241	791.2
407.705	796.7
408.169	793.3
408.632	791.1
409.096	786.7
409.56	790.1
410.024	787.4
410.487	789.3
410.951	789
411.415	790.1
411.878	791.3
412.342	790.8
412.806	789.8
413.269	787.3
413.733	792.8
414.196	791.5
414.66	794.5
415.123	798.6
415.587	794.4
416.05	793.4
416.513	802.8
416.977	799.3
417.44	799.7
417.903	800.5
418.366	801.3
418.83	808.9
419.293	809.2
419.756	810
420.219	810.5
420.682	812.6
421.145	816.7
421.608	819.6
422.072	823.5
422.535	831.3
422.998	837
423.46	843
423.923	854.5
424.386	862.5
424.849	876.6
425.312	898.4
425.775	911.7
426.238	947.2
426.7	993.7
427.163	1049.5
427.626	1128.7
428.089	1225
428.551	1351.1
429.014	1507.8
429.477	1707.3
429.939	1949.7
430.402	2225.6
430.864	2574.9
431.327	3049.4
431.789	3614.2
432.252	4217.3
432.714	4956.6
433.176	5721.3
433.639	6614.8
434.101	7574.8
434.563	8691.3
435.026	9523.9
435.488	10524.3
435.95	11586.1
436.412	12191.3
436.875	12703.5
437.337	13218.5
437.799	13606.6
438.261	13727.7
438.723	13916.1
439.185	13875.9
439.647	13598.2
440.109	13003.9
440.571	12466.4
441.033	11866.3
441.495	11187.2
441.957	10518.4
442.419	9720.8
442.881	9035.5
443.342	8104.2
443.804	7269
444.266	6545.6
444.728	5943.4
445.189	5247.1
445.651	4638.3
446.113	4084.4
446.574	3593
447.036	3192.9
447.497	2840.6
447.959	2546
448.421	2284.3
448.882	2032.5
449.343	1828.3
449.805	1668.2
450.266	1547.9
450.728	1431.4
451.189	1324.1
451.65	1240
452.112	1179.9
452.573	1131.5
453.034	1084.9
453.495	1048
453.957	1006.7
454.418	987.5
454.879	968.5
455.34	955.8
455.801	931.5
456.262	926.4
456.723	905.3
457.184	907
457.645	899.9
458.106	887.5
458.567	884.7
459.028	876
459.489	876.9
459.95	869.2
460.41	865.4
460.871	855.5
461.332	855.1
461.793	846.4
462.253	842.1
462.714	837
463.175	838.9
463.635	841.7
464.096	834.4
464.556	838.8
465.017	829.8
465.478	827.7
465.938	825.2
466.398	825.3
466.859	820.3
467.319	825
467.78	824.1
468.24	824.3
468.7	819.6
469.161	820
469.621	816.2
470.081	816
470.541	816.3
471.002	819.7
471.462	817.4
471.922	816.3
472.382	811.1
472.842	815.2
473.302	811.5
473.762	810.1
474.222	811.3
474.682	811
475.142	814.7
475.602	811.3
476.062	813.6
476.522	812.4
476.982	818.6
477.442	819
477.901	811.8
478.361	815.1
478.821	813.5
479.281	812.6
479.74	817.3
480.2	820.8
480.659	817.2
481.119	816
481.579	811.9
482.038	810.2
482.498	797.8
482.957	790.5
483.417	783.2
483.876	784.7
484.336	779.8
484.795	781.2
485.254	782.3
485.714	778.5
486.173	782.6
486.632	773
487.091	781.5
487.551	781.7
488.01	780.3
488.469	786.8
488.928	781.5
489.387	781.3
489.846	785.5
490.305	775.5
490.764	778.6
491.223	781.2
491.682	773.8
492.141	784.7
492.6	782.4
493.059	780.3
493.518	782.2
493.977	780.1
494.436	781.4
494.895	776.8
495.353	779.1
495.812	776.4
496.271	779.4
496.729	773.4
497.188	778.5
497.647	781.3
498.105	779.5
498.564	777.7
499.022	775.9
499.481	779.1
499.939	779.1
500.398	783.6
500.856	779.2
501.315	782.6
501.773	780.3
502.232	784.4
502.69	783.3
503.148	779.4
503.606	782
504.065	781.6
504.523	778.5
504.981	781.9
505.439	778.4
505.897	776
506.356	776.3
506.814	782.5
507.272	780.2
507.73	779.9
508.188	785.7
508.646	779.3
509.104	774.9
509.562	778.4
510.02	780.4
510.477	776.5
510.935	773.7
511.393	779.1
511.851	777.8
512.309	777
512.766	775.4
513.224	780.1
513.682	778.6
514.139	782.2
514.597	776.3
515.055	776.9
515.512	776.5
515.97	779.1
516.427	776.9
516.885	784.8
517.342	774.6
517.8	776.2
518.257	776.7
518.714	776.9
519.172	780.8
519.629	777.5
520.086	779.1
520.544	776.6
521.001	774.8
521.458	776
521.915	776.4
522.373	776.1
522.83	780.3
523.287	781.5
523.744	776
524.201	779.5
524.658	780.1
525.115	776.4
525.572	777.5
526.029	775.7
526.486	773
526.943	775.2
527.4	778
527.857	776.3
528.313	778.4
528.77	779
529.227	775.6
529.684	775.6
530.14	780.1
530.597	776.3
531.054	775.8
531.51	781.6
531.967	774.4
532.423	777.6
532.88	775.6
533.337	778.7
533.793	779.5
534.25	778
534.706	774
535.162	780.6
535.619	781.5
536.075	780.5
536.531	782.3
536.988	778.9
537.444	775.7
537.9	774
538.356	777.2
538.813	774.3
539.269	778.4
539.725	780.4
540.181	781.1
540.637	781.6
541.093	780.3
541.549	779.7
542.005	777.5
542.461	775.6
542.917	773.5
543.373	776
543.829	778.2
544.285	775.7
544.741	774.3
545.197	776.8
545.652	774.3
546.108	773.5
546.564	775.2
547.02	780.4
547.475	774.9
547.931	777.2
548.387	775.6
548.842	779.1
549.298	776
549.753	779.2
550.209	779.7
550.664	774.3
551.12	780.3
551.575	779
552.031	772.9
552.486	778.7
552.941	776.5
553.397	777.4
553.852	774.8
554.307	774.3
554.762	774.8
555.218	775.7
555.673	777.4
556.128	776.3
556.583	783.9
557.038	777.1
557.493	770.3
557.948	779.5
558.403	776.4
558.858	777.8
559.313	776.7
559.768	779.6
560.223	778.2
560.678	773.4
561.133	772.2
561.588	778.2
562.043	775.8
562.497	780.2
562.952	771.8
563.407	777.3
563.862	778.8
564.316	778
564.771	779.6
565.226	774.7
565.68	772.3
566.135	782
566.589	781
567.044	781.1
567.498	777.1
567.953	778.3
568.407	776.3
568.862	777.2
569.316	777.3
569.77	777.8
570.225	774.5
570.679	773.6
571.133	776.6
571.587	774.6
572.042	775.2
572.496	779
572.95	775
573.404	775.7
573.858	778.3
574.312	778.5
574.766	774.5
575.22	775.6
575.674	779.5
576.128	781.1
576.582	773.8
577.036	776.9
577.49	775.1
577.944	776.4
578.398	776.6
578.852	779.5
579.305	777
579.759	776.8
580.213	778.9
580.666	777.3
581.12	773.9
581.574	771.6
582.027	779
582.481	776.3
582.935	777.1
583.388	776.6
583.842	779.2
584.295	775.7
584.748	778.1
585.202	778.8
585.655	774.5
586.109	777.7
586.562	774.2
587.015	780.2
587.469	777.7
587.922	778.3
588.375	780.6
588.828	776.5
589.281	774.9
589.735	778.1
590.188	777.5
590.641	775.9
591.094	779.4
591.547	780.4
592	776.1
592.453	774.1
592.906	773.3
593.359	779.5
593.812	777.3
594.265	774.4
594.717	780.6
595.17	776.9
595.623	780.5
596.076	776
596.529	783.6
596.981	777.4
597.434	777
597.887	775.2
598.339	781.9
598.792	775
599.245	770.1
599.697	777.2
600.15	780.7
600.602	781.9
601.055	781.4
601.507	778.8
601.959	775.3
602.412	776.9
602.864	776.9
603.316	777.3
603.769	779.6
604.221	779.3
604.673	774.7
605.126	773.1
605.578	773.8
606.03	774.8
606.482	779.2
606.934	776
607.386	781.3
607.838	775.1
608.29	775.4
608.742	774.6
609.194	777.3
609.646	773.5
610.098	778.3
610.55	776
611.002	781.2
611.454	781.9
611.906	774.6
612.357	775
612.809	771.2
613.261	778.2
613.713	775.7
614.164	775.1
614.616	778
615.068	781.7
615.519	776.2
615.971	776.7
616.422	778.9
616.874	776.2
617.325	781.3
617.777	778.8
618.228	774.6
618.68	777.6
619.131	773.9
619.582	773.8
620.034	776
620.485	776.9
620.936	780
621.387	774.7
621.839	777.3
622.29	772.2
622.741	773.1
623.192	771.7
623.643	778.6
624.094	779.5
624.545	777.1
624.996	775.8
625.447	775.3
625.898	771.2
626.349	778.6
626.8	776.1
627.251	776
627.702	776.9
628.153	774
628.604	774.1
629.054	775.2
629.505	776.9
629.956	773.3
630.406	777.9
630.857	778.9
631.308	774.1
631.758	780.9
632.209	776.6
632.66	779.1
633.11	775.8
633.561	777.1
634.011	772.9
634.461	776.9
634.912	769
635.362	778.2
635.813	775.3
636.263	780
636.713	779.3
637.164	772.9
637.614	780
638.064	775.5
638.514	772.5
638.964	771.8
639.415	776.1
639.865	777.2
640.315	779.6
640.765	777.3
641.215	773.8
641.665	772
642.115	777.2
642.565	776.6
643.015	775.1
643.465	771.5
643.915	778.4
644.364	773.6
644.814	775.4
645.264	773.6
645.714	775.6
646.163	775.2
646.613	772.3
647.063	774.7
647.513	775.6
647.962	773.7
648.412	773.2
648.861	774.1
649.311	774.5
649.76	775.7
650.21	778.9
650.659	776.6
651.109	776.3
651.558	778.3
652.008	774.4
652.457	777.2
652.906	775.4
653.356	775.3
653.805	776
654.254	774.8
654.703	774.6
655.152	773.3
655.602	773.8
656.051	774.9
656.5	777.8
656.949	770.9
657.398	774.2
657.847	774.4
658.296	777.8
658.745	781.9
659.194	775.6
659.643	780
660.092	779.6
660.541	775.6
660.989	778.6
661.438	778.8
661.887	775.2
662.336	778.2
662.784	774.2
663.233	776.6
663.682	772.9
664.13	777.3
664.579	775
665.028	772.9
665.476	774.4
665.925	776.2
666.373	780.3
666.822	780.2
667.27	777.3
667.719	776.1
668.167	781.6
668.615	776.1
669.064	774.3
669.512	781.9
669.96	773.5
670.408	780.6
670.857	777.4
671.305	776.2
671.753	780.6
672.201	773.7
672.649	774.7
673.097	773.5
673.545	780.1
673.993	778.7
674.441	777
674.889	775.6
675.337	780.7
675.785	775.7
676.233	776.1
676.681	773.1
677.129	771.6
677.577	774
678.025	777.6
678.472	774.8
678.92	776.5
679.368	774.6
679.815	780
680.263	777.6
680.711	776.1
681.158	773.9
681.606	777.5
682.053	778.6
682.501	775.8
682.948	777.6
683.396	776.9
683.843	774.2
684.291	775
684.738	770.2
685.185	777.1
685.633	778.3
686.08	774.6
686.527	777.6
686.974	776.6
687.422	779
687.869	783.4
688.316	775.2
688.763	777.3
689.21	775.7
689.657	780.1
690.104	778.4
690.551	779.4
690.998	780.5
691.445	776.8
691.892	775.8
692.339	770.8
692.786	774.6
693.233	773.6
693.68	776.6
694.127	773.7
694.573	775
695.02	774.9
695.467	775.3
695.913	783.7
696.36	779.8
696.807	775.7
697.253	775.4
697.7	775.4
698.146	783.7
698.593	779.1
699.039	772.6
699.486	774.3
699.932	774.9
700.379	778.1
700.825	777.4
701.272	779.9
701.718	780.1
702.164	773.7
702.61	775.4
703.057	775.4
703.503	774.8
703.949	774.3
704.395	776.4
704.841	777.4
705.287	776.2
705.734	781.4
706.18	773
706.626	781.6
707.072	778.6
707.518	775.2
707.964	772.4
708.409	776.7
708.855	773.5
709.301	777.8
709.747	778.7
710.193	782.6
710.639	775.9
711.084	779
711.53	780.2
711.976	776.1
712.421	775.9
712.867	777.5
713.313	773.9
713.758	774
714.204	780
714.649	775.6
715.095	781.3
715.54	773.4
715.986	777.5
716.431	779.7
716.877	774.5
717.322	780.3
717.767	778.5
718.213	777.3
718.658	775.2
719.103	775.4
719.548	775.5
719.994	775.3
720.439	780.6
720.884	775.9
721.329	772.6
721.774	777.2
722.219	779.8
722.664	775.8
723.109	769.8
723.554	772.7
723.999	776.4
724.444	775.2
724.889	777.2
725.334	776.5
725.779	780.5
726.223	774.8
726.668	781.8
727.113	776.1
727.558	779.8
728.002	777
728.447	779
728.892	779.9
729.336	777.9
729.781	774.3
730.225	778.3
730.67	775.3
731.114	771.9
731.559	777.4
732.003	778.2
732.448	776.4
732.892	777.4
733.337	781.6
733.781	778
734.225	777.3
734.67	776.9
735.114	781.1
735.558	777.1
736.002	780.8
736.446	774.3
736.891	774.3
737.335	778.2
737.779	780.2
738.223	778.9
738.667	780.7
739.111	780.7
739.555	779
739.999	776.6
740.443	778.2
740.887	778.2
741.33	777.2
741.774	776.3
742.218	776.8
742.662	778.3
743.106	779.2
743.549	776.5
743.993	779.7
744.437	773.9
744.88	778.9
745.324	778.8
745.768	776.8
746.211	780.7
746.655	779.1
747.098	778.9
747.542	774
747.985	773.7
748.429	782.5
748.872	777.6
749.315	782.4
749.759	776.8
750.202	777
750.645	777.5
751.089	778.7
751.532	779.4
751.975	775.6
752.418	773.1
752.861	786
753.305	781.5
753.748	772.4
754.191	779.1
754.634	778
755.077	780.1
755.52	774.5
755.963	775.2
756.406	777.2
756.849	780.8
757.291	775.7
757.734	778.7
758.177	780.8
758.62	777.2
759.063	778.8
759.505	776.1
759.948	776.9
760.391	778.6
760.833	775
761.276	773.5
761.719	777.4
762.161	777
762.604	772.8
763.046	777.4
763.489	776.9
763.931	772.4
764.374	778.4
764.816	777.1
765.258	777.8
765.701	777
766.143	778.7
766.585	778.8
767.028	777.4
767.47	778.2
767.912	776.5
768.354	779
768.796	774.4
769.238	777
769.681	778.3
770.123	775.9
770.565	774
771.007	779.5
771.449	777.2
771.891	776.5
772.333	777.9
772.774	773.2
773.216	780
773.658	777.3
774.1	772.7
774.542	776.8
774.984	777.4
775.425	772.3
775.867	780
776.309	776.6
776.75	775.4
777.192	772.9
777.634	777
778.075	777.9
778.517	778
778.958	774.7
779.4	781.2
779.841	779.8
780.283	778.5
780.724	777.3
781.165	776.5
781.607	776.3
782.048	777.7
782.489	778.1
782.931	781.7
783.372	778.3
783.813	779.4
784.254	778
784.695	778.7
785.136	775.2
785.578	776
786.019	781.7
786.46	774.2
786.901	777.8
787.342	777.3
787.783	781.7
788.224	775.9
788.664	778.3
789.105	773.7
789.546	778
789.987	778.9
790.428	778.9
790.869	778
791.309	778.1
791.75	779
792.191	779.1
792.631	777.8
793.072	778.6
793.513	782.2
793.953	780.8
794.394	777.8
794.834	779.7
795.275	779.2
795.715	779.7
796.156	779
796.596	779.3
797.036	772.1
797.477	777
797.917	775.7
798.357	783.7
798.798	778.1
799.238	776.1
