节点UV_HRD08281_00009.txt的数据
Date: Wed Jan 15 10:33:38 CST 2020
User: lab329
Spectrometer: HR+D0828
触发模式: 0
积分时间 (秒): 6.000000E-3
Scans to average: 10
启用暗噪声校正: false
启用非线性校正: false
滑动平均宽度: 0
X轴模式: Wavelengths
Number of Pixels in Spectrum: 2048
>>>>>Begin Spectral Data<<<<<
186.281	780.9
186.758	780.9
187.234	780.9
187.71	779.2
188.187	782.2
188.663	779.9
189.139	782.1
189.615	778.9
190.091	780.7
190.567	785.7
191.043	784.9
191.519	780.7
191.995	784.5
192.471	785.9
192.947	775.1
193.423	779.7
193.899	778.6
194.375	776.2
194.851	778.8
195.327	783.1
195.803	784.3
196.278	788.3
196.754	782.2
197.23	780.3
197.706	778.3
198.181	777.1
198.657	777.2
199.133	780
199.608	779.7
200.084	782.8
200.559	777
201.035	781.7
201.51	781.4
201.986	779.5
202.461	780.5
202.937	783.5
203.412	783.4
203.887	777.2
204.363	780.8
204.838	779.8
205.313	780.3
205.789	776.4
206.264	777.7
206.739	778.7
207.214	780.2
207.689	775.1
208.165	778.5
208.64	775.8
209.115	782.5
209.59	775.8
210.065	781.4
210.54	779.4
211.015	776.2
211.49	774.6
211.965	782.1
212.44	778.7
212.914	779.1
213.389	777.8
213.864	780.7
214.339	778.3
214.814	773.1
215.288	780.4
215.763	778.4
216.238	778
216.712	782.9
217.187	772.4
217.662	778.5
218.136	778.7
218.611	772.9
219.085	781
219.56	776.7
220.034	778.8
220.509	781.6
220.983	775
221.458	778
221.932	777.1
222.406	776.5
222.881	775.9
223.355	778.9
223.829	779.4
224.303	776.6
224.778	780.7
225.252	781.1
225.726	783.7
226.2	776.2
226.674	774.6
227.148	777.7
227.622	779.6
228.096	777.9
228.57	782.4
229.044	775.3
229.518	777.9
229.992	769.1
230.466	786.2
230.94	778.2
231.414	775.7
231.888	779.7
232.361	774.4
232.835	779.7
233.309	776.6
233.783	776.7
234.256	783.1
234.73	777.6
235.204	782
235.677	779.2
236.151	777.2
236.624	776.9
237.098	780.4
237.571	780.2
238.045	778.8
238.518	780.1
238.992	779.4
239.465	782.1
239.939	784.4
240.412	779.7
240.885	779.8
241.359	773
241.832	777.7
242.305	779.9
242.778	777.9
243.251	783.3
243.725	784
244.198	780
244.671	781.7
245.144	782.2
245.617	776.1
246.09	780.2
246.563	777.5
247.036	778.8
247.509	778.9
247.982	779.2
248.455	777.1
248.928	779.1
249.4	777
249.873	780.8
250.346	778.8
250.819	781.3
251.292	782.8
251.764	778.1
252.237	779.4
252.71	780.2
253.182	775.4
253.655	780.6
254.127	773.4
254.6	779.2
255.073	784.5
255.545	778.7
256.018	783.5
256.49	775.8
256.962	778.8
257.435	778.8
257.907	780.9
258.379	778.2
258.852	779.2
259.324	778.2
259.796	776.6
260.269	777.5
260.741	779.4
261.213	781.4
261.685	786.1
262.157	778.8
262.629	779.5
263.101	773.1
263.574	780.6
264.046	783.4
264.518	774.6
264.99	782.2
265.461	782.5
265.933	779.5
266.405	780.3
266.877	778.7
267.349	780.4
267.821	783.2
268.293	777.4
268.764	783.2
269.236	780.5
269.708	779.8
270.18	779.9
270.651	777.7
271.123	782.9
271.594	781.6
272.066	775.7
272.538	777.6
273.009	775.3
273.481	781.2
273.952	779.9
274.423	778.7
274.895	780.6
275.366	778.9
275.838	781.8
276.309	780.5
276.78	779.5
277.252	774.7
277.723	778.4
278.194	778.9
278.665	785.5
279.136	786.4
279.608	776.9
280.079	785.5
280.55	786.2
281.021	779.1
281.492	783.6
281.963	781.9
282.434	780.3
282.905	783.4
283.376	781.5
283.847	784.8
284.318	784.2
284.789	778.1
285.259	777.9
285.73	781.4
286.201	780.3
286.672	780.3
287.143	781.4
287.613	782.8
288.084	779.7
288.555	777.3
289.025	776.4
289.496	782
289.966	778.5
290.437	778.1
290.907	780.7
291.378	779.4
291.848	779.2
292.319	780.6
292.789	784.3
293.26	784
293.73	778.8
294.2	784.2
294.671	784.1
295.141	781.7
295.611	784.5
296.081	780.2
296.552	781.9
297.022	775.6
297.492	775.5
297.962	780.4
298.432	786.5
298.902	781
299.372	785.3
299.842	781.1
300.312	783.2
300.782	779.4
301.252	777.2
301.722	782.6
302.192	782.2
302.662	780.1
303.132	780.3
303.602	783.9
304.071	784.4
304.541	779.7
305.011	781.6
305.481	782
305.95	782.6
306.42	781
306.889	779.6
307.359	779.9
307.829	782.6
308.298	782.5
308.768	783.8
309.237	782.5
309.707	780.3
310.176	779
310.645	778.8
311.115	778.9
311.584	779.5
312.054	783.5
312.523	776.7
312.992	785.3
313.461	782.1
313.931	781.1
314.4	780.4
314.869	784.5
315.338	781.3
315.807	783.7
316.276	778.6
316.745	784.3
317.214	779.7
317.683	782.3
318.152	775.4
318.621	779.3
319.09	780.7
319.559	781.2
320.028	784.2
320.497	784
320.966	778.6
321.435	781.6
321.903	776.9
322.372	780.7
322.841	780
323.31	782.6
323.778	779.9
324.247	779.7
324.715	784.8
325.184	776.1
325.653	781.2
326.121	782.6
326.59	781
327.058	783.4
327.527	784
327.995	785.3
328.463	783.4
328.932	781.1
329.4	784.9
329.868	781.4
330.337	779.9
330.805	778.1
331.273	780.2
331.741	779.7
332.21	782.1
332.678	781.2
333.146	786.9
333.614	780.6
334.082	779.1
334.55	783.4
335.018	787.8
335.486	781.3
335.954	783.8
336.422	782.5
336.89	784.2
337.358	783.7
337.826	778
338.294	780.3
338.762	781.7
339.229	784.4
339.697	784.9
340.165	789
340.633	785.3
341.1	782.6
341.568	784.4
342.035	785.8
342.503	782.4
342.971	779.4
343.438	784.8
343.906	779.7
344.373	781.7
344.841	784.6
345.308	782.4
345.776	780.9
346.243	783.5
346.71	783.6
347.178	781.7
347.645	787.5
348.112	781.3
348.58	783.9
349.047	784.3
349.514	781.3
349.981	781.3
350.448	782
350.915	782.2
351.383	780.9
351.85	784.1
352.317	782.3
352.784	777.3
353.251	783.3
353.718	784
354.185	777
354.651	781.9
355.118	783.4
355.585	777.6
356.052	784.2
356.519	779.9
356.986	785.6
357.452	781.9
357.919	780.7
358.386	783.8
358.853	786.2
359.319	780.7
359.786	781.3
360.252	788.6
360.719	783.5
361.185	789
361.652	782.8
362.118	781.4
362.585	785.4
363.051	780
363.518	780.8
363.984	786.3
364.451	783.7
364.917	783.2
365.383	780.5
365.849	788
366.316	787.9
366.782	785.5
367.248	783.8
367.714	785.8
368.18	786.8
368.647	792.9
369.113	785.7
369.579	787.8
370.045	790.8
370.511	789.2
370.977	790.9
371.443	792.9
371.909	792.4
372.374	792.7
372.84	798.8
373.306	796
373.772	800.2
374.238	795
374.704	799.5
375.169	800.4
375.635	800.8
376.101	808
376.566	804.3
377.032	805.5
377.498	811.5
377.963	806.9
378.429	816.6
378.894	814.9
379.36	818.7
379.825	827.2
380.291	832.9
380.756	851.2
381.222	882.2
381.687	918.3
382.152	983.1
382.618	1082
383.083	1228.6
383.548	1442
384.013	1724.1
384.479	2139.4
384.944	2705.4
385.409	3469.9
385.874	4406.6
386.339	5494.5
386.804	6708.6
387.269	8079
387.734	9323.2
388.199	10149.3
388.664	10876.9
389.129	11668.2
389.594	12425.6
390.059	12748.3
390.524	12980.1
390.989	12844
391.453	12309.9
391.918	11700.8
392.383	10792.6
392.848	9562
393.312	8344.5
393.777	7098.7
394.242	5926.1
394.706	4989.8
395.171	4094.1
395.635	3358.5
396.1	2746.6
396.565	2267.2
397.029	1885.5
397.493	1567.3
397.958	1356.1
398.422	1206.3
398.887	1090.9
399.351	1009.8
399.815	947
400.28	910.4
400.744	887.9
401.208	872.9
401.672	858.1
402.137	847.8
402.601	840.7
403.065	833
403.529	831.9
403.993	830.8
404.457	820.8
404.921	826
405.385	828.6
405.849	820.3
406.313	820.4
406.777	826.4
407.241	816.9
407.705	811.8
408.169	816.4
408.632	813.4
409.096	807.1
409.56	809.3
410.024	805.5
410.487	803.2
410.951	801.5
411.415	803.4
411.878	798.6
412.342	798.9
412.806	798.6
413.269	792.9
413.733	791.9
414.196	788.7
414.66	787.9
415.123	789.5
415.587	790.5
416.05	790.6
416.513	787.7
416.977	787
417.44	783.4
417.903	780.8
418.366	780.8
418.83	785.9
419.293	786
419.756	781.3
420.219	787.6
420.682	787.1
421.145	783.6
421.608	781.7
422.072	786.7
422.535	786.1
422.998	785.1
423.46	786
423.923	782.9
424.386	777.6
424.849	782.3
425.312	780.6
425.775	785.5
426.238	783
426.7	780.7
427.163	781.8
427.626	779.6
428.089	781.5
428.551	778.5
429.014	781.4
429.477	780.6
429.939	780.8
430.402	779
430.864	781
431.327	783.9
431.789	779.7
432.252	780.8
432.714	786.1
433.176	782.6
433.639	781.2
434.101	777.7
434.563	779.6
435.026	780.7
435.488	781.7
435.95	780.4
436.412	781.9
436.875	780.7
437.337	779
437.799	777
438.261	783.8
438.723	780.3
439.185	782.4
439.647	781.1
440.109	782.1
440.571	778
441.033	779.6
441.495	784.8
441.957	783.4
442.419	780.2
442.881	780.4
443.342	780.6
443.804	782.7
444.266	783.6
444.728	780
445.189	783.6
445.651	777.9
446.113	781.8
446.574	783.2
447.036	785.3
447.497	781.9
447.959	781.1
448.421	782
448.882	781.8
449.343	778.6
449.805	783.8
450.266	778.3
450.728	775.8
451.189	782.4
451.65	782.4
452.112	779.1
452.573	780.3
453.034	781.9
453.495	779.4
453.957	776.9
454.418	780.6
454.879	779.8
455.34	774.7
455.801	781.6
456.262	779.7
456.723	779.1
457.184	780.2
457.645	775.8
458.106	776
458.567	781.3
459.028	779.3
459.489	784.8
459.95	780.1
460.41	777.3
460.871	780.4
461.332	781.9
461.793	779.1
462.253	776.5
462.714	775.9
463.175	777.6
463.635	779.3
464.096	779.3
464.556	780.8
465.017	780.5
465.478	776.6
465.938	782.4
466.398	779.3
466.859	779.6
467.319	777.3
467.78	779.8
468.24	781
468.7	783.5
469.161	780.6
469.621	780.2
470.081	777.5
470.541	778.1
471.002	778.7
471.462	779
471.922	781.4
472.382	782.2
472.842	780.2
473.302	781.9
473.762	779.7
474.222	785.1
474.682	784.1
475.142	779.4
475.602	784.7
476.062	781.8
476.522	781.4
476.982	775
477.442	781.8
477.901	775.1
478.361	778.7
478.821	779.7
479.281	783.1
479.74	779.4
480.2	783.5
480.659	775.5
481.119	781.6
481.579	779.7
482.038	775.5
482.498	777.6
482.957	778.5
483.417	779.5
483.876	775.9
484.336	777
484.795	772.3
485.254	774.8
485.714	778.5
486.173	779
486.632	781.5
487.091	780.9
487.551	777.9
488.01	773.4
488.469	779.5
488.928	780.2
489.387	781.7
489.846	774.1
490.305	771.4
490.764	783
491.223	777.1
491.682	776.9
492.141	778.6
492.6	782.3
493.059	780.9
493.518	781.4
493.977	780.2
494.436	783.1
494.895	771
495.353	781.1
495.812	776.6
496.271	781.4
496.729	778.6
497.188	777.8
497.647	785.1
498.105	779.8
498.564	775.9
499.022	784.3
499.481	777.4
499.939	778.3
500.398	776.5
500.856	780
501.315	779.1
501.773	780.5
502.232	777
502.69	780.9
503.148	777.2
503.606	772.6
504.065	777.7
504.523	780.7
504.981	773.6
505.439	782.9
505.897	783.9
506.356	779.1
506.814	779.7
507.272	771.8
507.73	776.7
508.188	779.2
508.646	779.2
509.104	779.6
509.562	778.3
510.02	772.4
510.477	776.6
510.935	770.8
511.393	777.1
511.851	781
512.309	779
512.766	776.6
513.224	777.4
513.682	777.4
514.139	781.6
514.597	775.8
515.055	777.9
515.512	775.2
515.97	775.9
516.427	776.2
516.885	772.9
517.342	775.7
517.8	777.6
518.257	777.1
518.714	776.8
519.172	778.8
519.629	781.6
520.086	775.9
520.544	778.6
521.001	780.9
521.458	772.3
521.915	775
522.373	780.3
522.83	774.7
523.287	774.3
523.744	776.1
524.201	779.1
524.658	775.4
525.115	777.8
525.572	778.4
526.029	781
526.486	777.6
526.943	773.8
527.4	778.9
527.857	774.8
528.313	776.6
528.77	776.4
529.227	778.3
529.684	778
530.14	777.9
530.597	779.2
531.054	774.7
531.51	780.3
531.967	779.8
532.423	779.2
532.88	778.7
533.337	773.9
533.793	780.5
534.25	776.7
534.706	773.5
535.162	775.7
535.619	774.2
536.075	775.1
536.531	778.8
536.988	776.9
537.444	774.3
537.9	774.8
538.356	780.6
538.813	775.7
539.269	775.7
539.725	779.2
540.181	775.9
540.637	779
541.093	777.9
541.549	777.9
542.005	777.2
542.461	772.9
542.917	776
543.373	772.9
543.829	774
544.285	783.8
544.741	779.6
545.197	774.2
545.652	773.5
546.108	779.7
546.564	774.8
547.02	780.3
547.475	773.6
547.931	774.5
548.387	775.5
548.842	780.3
549.298	779.8
549.753	776.7
550.209	773.1
550.664	777.5
551.12	774.2
551.575	776.9
552.031	779.2
552.486	776.9
552.941	777.8
553.397	777
553.852	778.3
554.307	776.2
554.762	776.8
555.218	775.4
555.673	776.6
556.128	777.6
556.583	775.3
557.038	779.8
557.493	777
557.948	779.1
558.403	782.9
558.858	775
559.313	776.6
559.768	775
560.223	776.8
560.678	774.4
561.133	779.2
561.588	779.6
562.043	777.5
562.497	768.6
562.952	776.2
563.407	778.2
563.862	777.9
564.316	774.7
564.771	773.2
565.226	775.9
565.68	778.9
566.135	776.3
566.589	783.2
567.044	779.6
567.498	772.3
567.953	781.8
568.407	778.4
568.862	778.9
569.316	769.8
569.77	775.7
570.225	778.6
570.679	777.8
571.133	776.6
571.587	772.8
572.042	778.9
572.496	773
572.95	775.8
573.404	778.3
573.858	776
574.312	776.5
574.766	777.3
575.22	775.2
575.674	781.5
576.128	775.6
576.582	780
577.036	775.4
577.49	775.4
577.944	780.5
578.398	770.7
578.852	775.6
579.305	778.5
579.759	777.3
580.213	777.4
580.666	777.6
581.12	776.2
581.574	775.4
582.027	774
582.481	775.2
582.935	779.8
583.388	780.1
583.842	774.1
584.295	779
584.748	774.2
585.202	778.1
585.655	776.6
586.109	775.8
586.562	774.7
587.015	776.4
587.469	770.4
587.922	777.1
588.375	774.6
588.828	771.9
589.281	773.6
589.735	776.5
590.188	774.9
590.641	774.8
591.094	781.6
591.547	779.2
592	770.6
592.453	776.2
592.906	775.2
593.359	770.5
593.812	772.9
594.265	772
594.717	777.5
595.17	773.9
595.623	777.3
596.076	777.4
596.529	778.9
596.981	775.4
597.434	777.6
597.887	773.7
598.339	775.3
598.792	778.9
599.245	774.4
599.697	772.5
600.15	776.2
600.602	772.5
601.055	774.5
601.507	771.4
601.959	778.5
602.412	773.1
602.864	774.1
603.316	774.4
603.769	777
604.221	771.8
604.673	773.7
605.126	780
605.578	777.3
606.03	775.4
606.482	773.8
606.934	774.6
607.386	777
607.838	772
608.29	776.2
608.742	776.4
609.194	771.3
609.646	778
610.098	772.8
610.55	776.5
611.002	777.7
611.454	774.4
611.906	775
612.357	774.6
612.809	777.4
613.261	778.3
613.713	778.6
614.164	773
614.616	774.1
615.068	777.4
615.519	774.2
615.971	777.6
616.422	769.8
616.874	770.9
617.325	776.2
617.777	780.5
618.228	777.9
618.68	773.3
619.131	774.2
619.582	782.2
620.034	780
620.485	777.3
620.936	775.6
621.387	776.5
621.839	779.4
622.29	766.2
622.741	775.1
623.192	778.4
623.643	776.7
624.094	776
624.545	777.2
624.996	775.9
625.447	776.8
625.898	774
626.349	778.5
626.8	774.8
627.251	775.9
627.702	775.9
628.153	772.5
628.604	778.8
629.054	773.7
629.505	773.6
629.956	778.6
630.406	773
630.857	775.6
631.308	774.3
631.758	776.8
632.209	776.7
632.66	774.9
633.11	776.7
633.561	780.9
634.011	777.7
634.461	776
634.912	778
635.362	775.6
635.813	775.8
636.263	777
636.713	774.1
637.164	777.2
637.614	778.8
638.064	773.3
638.514	772.9
638.964	779
639.415	775.7
639.865	775.9
640.315	776.5
640.765	773.5
641.215	774.1
641.665	774.5
642.115	775.1
642.565	776.6
643.015	777.5
643.465	775.5
643.915	776.6
644.364	777.3
644.814	775.5
645.264	776.4
645.714	775.1
646.163	782.2
646.613	776.9
647.063	777.8
647.513	776.9
647.962	777.4
648.412	778.7
648.861	769.9
649.311	777.5
649.76	776.3
650.21	777.5
650.659	777.3
651.109	777.9
651.558	772.3
652.008	776.8
652.457	776.4
652.906	775.5
653.356	780.3
653.805	776.1
654.254	777.3
654.703	778
655.152	770.7
655.602	777.8
656.051	776
656.5	774.8
656.949	780.9
657.398	772.7
657.847	776.9
658.296	779.3
658.745	775.3
659.194	778.8
659.643	777.5
660.092	772.1
660.541	779.4
660.989	775
661.438	775.5
661.887	773.4
662.336	779.5
662.784	775.4
663.233	776.4
663.682	769.2
664.13	776.8
664.579	772.6
665.028	779.9
665.476	778.3
665.925	772.7
666.373	777
666.822	774.6
667.27	773.7
667.719	775
668.167	773.7
668.615	775.3
669.064	779.2
669.512	772.9
669.96	777.7
670.408	776.2
670.857	773.2
671.305	773.4
671.753	781.8
672.201	777.5
672.649	777.2
673.097	781.4
673.545	779.6
673.993	778.6
674.441	775.3
674.889	773.2
675.337	778.1
675.785	778.2
676.233	775.2
676.681	777.8
677.129	777.9
677.577	773.5
678.025	771.8
678.472	775.5
678.92	776
679.368	778
679.815	776.7
680.263	776.1
680.711	780.8
681.158	777.1
681.606	773.5
682.053	777.9
682.501	778.3
682.948	778.1
683.396	773.3
683.843	774
684.291	775.3
684.738	772.8
685.185	773.4
685.633	772.5
686.08	773
686.527	769.6
686.974	780.2
687.422	775.8
687.869	780.2
688.316	775.7
688.763	774
689.21	774.8
689.657	776.8
690.104	777.7
690.551	778.6
690.998	780.4
691.445	781.4
691.892	774.5
692.339	774.9
692.786	783.2
693.233	774.1
693.68	776.7
694.127	776.5
694.573	778.4
695.02	771.2
695.467	777.3
695.913	779.9
696.36	778.1
696.807	776.4
697.253	778.8
697.7	777
698.146	777.9
698.593	778.9
699.039	780.8
699.486	775.4
699.932	773.5
700.379	775.8
700.825	775.3
701.272	775.5
701.718	774
702.164	774.4
702.61	778.8
703.057	780.7
703.503	775.4
703.949	779.8
704.395	776.9
704.841	777.9
705.287	781.2
705.734	777.2
706.18	781.3
706.626	776
707.072	777.9
707.518	778.5
707.964	771.5
708.409	774.1
708.855	772.6
709.301	769.7
709.747	773.2
710.193	774.3
710.639	778.2
711.084	774.7
711.53	771.7
711.976	774.2
712.421	776.5
712.867	775.4
713.313	778
713.758	779.1
714.204	780.2
714.649	777.1
715.095	775.3
715.54	779.9
715.986	779.8
716.431	778.1
716.877	779
717.322	775
717.767	774.6
718.213	773.7
718.658	774
719.103	776
719.548	775.3
719.994	773.7
720.439	775.5
720.884	778.3
721.329	774.8
721.774	777.2
722.219	775.1
722.664	776.8
723.109	778.8
723.554	773.4
723.999	775.2
724.444	779.4
724.889	776.2
725.334	774.5
725.779	777.8
726.223	778.3
726.668	778
727.113	771.3
727.558	775.9
728.002	780.3
728.447	775.9
728.892	777.9
729.336	775.8
729.781	773.2
730.225	773.8
730.67	775.9
731.114	774.6
731.559	772.8
732.003	772.9
732.448	778.5
732.892	776.4
733.337	775
733.781	776.2
734.225	777.2
734.67	781.9
735.114	787.4
735.558	775.3
736.002	773.8
736.446	777
736.891	773.2
737.335	774.8
737.779	777.6
738.223	774.3
738.667	776.2
739.111	774.1
739.555	780.1
739.999	773
740.443	777.3
740.887	771.9
741.33	776.3
741.774	774.7
742.218	777.8
742.662	775.7
743.106	778.6
743.549	775.9
743.993	774.7
744.437	777.8
744.88	775.1
745.324	776.4
745.768	775.5
746.211	776.4
746.655	779.9
747.098	773.9
747.542	772.4
747.985	778.7
748.429	775.5
748.872	773.2
749.315	779.8
749.759	778
750.202	773.7
750.645	776.7
751.089	772
751.532	779.2
751.975	777.1
752.418	780.4
752.861	776.6
753.305	773.8
753.748	778.5
754.191	771.9
754.634	778.2
755.077	778.4
755.52	776.9
755.963	775.3
756.406	773.2
756.849	775.5
757.291	778.4
757.734	778.9
758.177	771.8
758.62	779.6
759.063	776.3
759.505	777.5
759.948	779.3
760.391	778.7
760.833	779.6
761.276	777.1
761.719	770.4
762.161	777.2
762.604	774.1
763.046	773.1
763.489	775.3
763.931	777.6
764.374	781.4
764.816	775
765.258	779.8
765.701	778.4
766.143	776.4
766.585	777.5
767.028	778.3
767.47	776.6
767.912	770.9
768.354	775.1
768.796	776.7
769.238	777.7
769.681	778.6
770.123	770.5
770.565	777.5
771.007	778.2
771.449	776.2
771.891	773.5
772.333	780.3
772.774	772.2
773.216	775.9
773.658	772.1
774.1	781.8
774.542	774.1
774.984	776.2
775.425	775.7
775.867	778
776.309	770.6
776.75	778
777.192	775.9
777.634	780.3
778.075	778.7
778.517	772.1
778.958	772
779.4	779
779.841	775.7
780.283	779.2
780.724	778.7
781.165	776.8
781.607	776.5
782.048	776.8
782.489	777.8
782.931	781.2
783.372	775.9
783.813	777.6
784.254	782
784.695	777.3
785.136	775.1
785.578	777.8
786.019	778.7
786.46	775.9
786.901	777.2
787.342	778.8
787.783	771.8
788.224	771.6
788.664	781.4
789.105	774.2
789.546	778.4
789.987	777.9
790.428	781.2
790.869	777
791.309	779.7
791.75	774.2
792.191	775.5
792.631	772.8
793.072	777.8
793.513	779
793.953	775.5
794.394	773.2
794.834	772.7
795.275	776.4
795.715	775.8
796.156	775.4
796.596	776.5
797.036	781.6
797.477	776.4
797.917	778.7
798.357	776.6
798.798	776.2
799.238	780.1
