节点UV_HRD08281_00004.txt的数据
Date: Wed Jan 15 10:27:46 CST 2020
User: lab329
Spectrometer: HR+D0828
触发模式: 0
积分时间 (秒): 5.000000E-2
Scans to average: 10
启用暗噪声校正: false
启用非线性校正: false
滑动平均宽度: 0
X轴模式: Wavelengths
Number of Pixels in Spectrum: 2048
>>>>>Begin Spectral Data<<<<<
186.281	779.1
186.758	779.1
187.234	779.1
187.71	781.3
188.187	782.9
188.663	782.1
189.139	783.1
189.615	783.9
190.091	782.6
190.567	783.3
191.043	781.9
191.519	785.5
191.995	784.4
192.471	786.1
192.947	779.5
193.423	782.6
193.899	782.2
194.375	783
194.851	782.8
195.327	784.8
195.803	782.8
196.278	790.6
196.754	784.2
197.23	783.7
197.706	785
198.181	786
198.657	784.1
199.133	782.1
199.608	775.8
200.084	778.9
200.559	789.4
201.035	785.2
201.51	782.1
201.986	783.9
202.461	781.4
202.937	776.1
203.412	778.7
203.887	782.2
204.363	788.8
204.838	781.7
205.313	781.2
205.789	783.6
206.264	782.8
206.739	783.9
207.214	778.7
207.689	786
208.165	780.9
208.64	784.4
209.115	781.4
209.59	780.8
210.065	781.9
210.54	781.4
211.015	779.2
211.49	780.6
211.965	779.1
212.44	778.3
212.914	779.5
213.389	785.4
213.864	779.3
214.339	784.9
214.814	779.2
215.288	775.6
215.763	780.2
216.238	779.3
216.712	783.6
217.187	776.1
217.662	780
218.136	778.8
218.611	781.9
219.085	784.2
219.56	779.5
220.034	775.6
220.509	783.3
220.983	781.5
221.458	778
221.932	781.9
222.406	780.9
222.881	780.3
223.355	785.9
223.829	779.7
224.303	781.6
224.778	781.7
225.252	782.4
225.726	782.9
226.2	783.1
226.674	784.9
227.148	776.9
227.622	777.6
228.096	776.8
228.57	780.1
229.044	778.3
229.518	780.4
229.992	787.8
230.466	842.5
230.94	785.9
231.414	783.8
231.888	780.3
232.361	783.2
232.835	781
233.309	785.2
233.783	782.8
234.256	779.9
234.73	779.9
235.204	784.4
235.677	784.4
236.151	781.9
236.624	781.5
237.098	776.8
237.571	778.9
238.045	782.3
238.518	778.2
238.992	783.9
239.465	784.3
239.939	781.2
240.412	773.4
240.885	777.7
241.359	781.4
241.832	782.2
242.305	782.2
242.778	781.8
243.251	783.6
243.725	781.6
244.198	777
244.671	784.4
245.144	780.5
245.617	781.6
246.09	782.8
246.563	786.3
247.036	781.3
247.509	781.9
247.982	785.2
248.455	787.6
248.928	782.7
249.4	779.9
249.873	779.8
250.346	785
250.819	782.9
251.292	776.5
251.764	784.6
252.237	784.6
252.71	783.2
253.182	780.6
253.655	784.5
254.127	780.6
254.6	780
255.073	808.6
255.545	782.9
256.018	782.2
256.49	784.1
256.962	782
257.435	782.3
257.907	780.1
258.379	784.6
258.852	784.4
259.324	782.5
259.796	786.7
260.269	786.2
260.741	783.3
261.213	780
261.685	778.8
262.157	779.7
262.629	781
263.101	784.8
263.574	783.6
264.046	780.5
264.518	779.6
264.99	785.5
265.461	779
265.933	780.8
266.405	781.3
266.877	782.7
267.349	780.2
267.821	784.8
268.293	784.9
268.764	784.9
269.236	784.4
269.708	782.4
270.18	782.1
270.651	784.8
271.123	783
271.594	782.4
272.066	787.9
272.538	787.8
273.009	781
273.481	780.6
273.952	784.4
274.423	784.2
274.895	786.7
275.366	782
275.838	785
276.309	781.4
276.78	778.9
277.252	780.7
277.723	784.8
278.194	782
278.665	785.1
279.136	781.4
279.608	782.6
280.079	781.1
280.55	777.3
281.021	785.7
281.492	786.8
281.963	779.3
282.434	779.8
282.905	778.7
283.376	780.6
283.847	777.8
284.318	783.1
284.789	785.8
285.259	782.5
285.73	781.3
286.201	782.6
286.672	777.8
287.143	784.6
287.613	780.5
288.084	780.7
288.555	784.1
289.025	787.3
289.496	785.5
289.966	782.6
290.437	784
290.907	782.5
291.378	781.5
291.848	782
292.319	784.3
292.789	780.9
293.26	785.7
293.73	781.9
294.2	786.5
294.671	781.8
295.141	780.1
295.611	779.5
296.081	784.4
296.552	781.9
297.022	783.1
297.492	779.8
297.962	784.8
298.432	784.5
298.902	779.7
299.372	783.5
299.842	783.7
300.312	780.8
300.782	779.5
301.252	783.2
301.722	784.9
302.192	780.4
302.662	780.1
303.132	781.6
303.602	780.2
304.071	782.6
304.541	782.8
305.011	786.3
305.481	782
305.95	783.5
306.42	781.9
306.889	781.9
307.359	786
307.829	788.2
308.298	780.6
308.768	779.8
309.237	780.9
309.707	784.1
310.176	782.4
310.645	786.7
311.115	789.5
311.584	785.3
312.054	782
312.523	783.9
312.992	787.1
313.461	783.1
313.931	784.7
314.4	787
314.869	784.4
315.338	782.4
315.807	780
316.276	781.5
316.745	785.9
317.214	782.4
317.683	779.3
318.152	783.5
318.621	785.5
319.09	784
319.559	781.9
320.028	786.6
320.497	782.7
320.966	780.8
321.435	782.7
321.903	783.8
322.372	789.7
322.841	786.7
323.31	784.6
323.778	784
324.247	783.4
324.715	784
325.184	785.5
325.653	784
326.121	785.5
326.59	786
327.058	781
327.527	784.6
327.995	785.6
328.463	785.5
328.932	782
329.4	790.7
329.868	781.2
330.337	784.4
330.805	785.6
331.273	780.4
331.741	783.5
332.21	786.1
332.678	779.1
333.146	787.5
333.614	785.2
334.082	789.2
334.55	787.9
335.018	784
335.486	785.2
335.954	783.6
336.422	788
336.89	782.7
337.358	785
337.826	784.4
338.294	782.6
338.762	785.5
339.229	786.6
339.697	785.6
340.165	789.2
340.633	785.8
341.1	781.8
341.568	785.1
342.035	784
342.503	783.3
342.971	783.8
343.438	785.4
343.906	783.9
344.373	785.6
344.841	788
345.308	792.5
345.776	792.1
346.243	788.3
346.71	794
347.178	796.3
347.645	796.8
348.112	795.6
348.58	793.6
349.047	802
349.514	806.2
349.981	800.5
350.448	803.1
350.915	808.6
351.383	805.8
351.85	801.3
352.317	807.8
352.784	812.1
353.251	813.7
353.718	819.6
354.185	814.1
354.651	816.6
355.118	817.6
355.585	819.4
356.052	826.3
356.519	833
356.986	833.2
357.452	844.8
357.919	875.4
358.386	914.2
358.853	991.3
359.319	1122.1
359.786	1369.9
360.252	1750.3
360.719	2330.3
361.185	3189
361.652	4351.2
362.118	5778.3
362.585	7500.1
363.051	9096.5
363.518	10671.6
363.984	11844.8
364.451	12579.4
364.917	13031.2
365.383	12850.9
365.849	12013.2
366.316	10972.3
366.782	9635
367.248	8348.1
367.714	6848.6
368.18	5489.9
368.647	4317.8
369.113	3344.2
369.579	2595.4
370.045	2053.7
370.511	1651.9
370.977	1391.3
371.443	1202.4
371.909	1069
372.374	981.2
372.84	930.7
373.306	893.4
373.772	873.3
374.238	866.8
374.704	861.5
375.169	852.8
375.635	849.9
376.101	847
376.566	847.3
377.032	837.3
377.498	839.3
377.963	838.6
378.429	834.1
378.894	830.7
379.36	826.7
379.825	835.9
380.291	824.2
380.756	819.3
381.222	822.4
381.687	817.8
382.152	817.4
382.618	816.4
383.083	811.4
383.548	810.9
384.013	809
384.479	802.5
384.944	806
385.409	803.7
385.874	804.2
386.339	797
386.804	800
387.269	798.4
387.734	788.1
388.199	794.8
388.664	791.8
389.129	790.5
389.594	784.9
390.059	786.5
390.524	788.8
390.989	790.6
391.453	792.2
391.918	781.5
392.383	789.3
392.848	789.8
393.312	786.2
393.777	783.6
394.242	788.6
394.706	791.2
395.171	784.1
395.635	784.6
396.1	779.4
396.565	783.8
397.029	785.2
397.493	778.6
397.958	786.3
398.422	789.5
398.887	787
399.351	782.8
399.815	780.4
400.28	783.4
400.744	780.9
401.208	782.1
401.672	784.5
402.137	786.5
402.601	791.7
403.065	784.7
403.529	782.6
403.993	778.5
404.457	786
404.921	782.3
405.385	785.2
405.849	784.3
406.313	787.2
406.777	783.8
407.241	783.1
407.705	777.9
408.169	780.2
408.632	783.5
409.096	785.2
409.56	781
410.024	782.1
410.487	780.7
410.951	783.3
411.415	787.4
411.878	782.1
412.342	790
412.806	784.8
413.269	780.7
413.733	786.7
414.196	784
414.66	782.8
415.123	785.5
415.587	780.5
416.05	785.4
416.513	785.5
416.977	781.4
417.44	785.6
417.903	781.8
418.366	778.6
418.83	782.1
419.293	784.5
419.756	782.1
420.219	788.4
420.682	784.5
421.145	788.6
421.608	786.8
422.072	787.2
422.535	781.9
422.998	782.2
423.46	779.3
423.923	782.8
424.386	777.9
424.849	785.5
425.312	784
425.775	782.9
426.238	779.5
426.7	784.5
427.163	784.5
427.626	778.7
428.089	781.4
428.551	782.2
429.014	779.9
429.477	780.6
429.939	781.9
430.402	784.2
430.864	781.2
431.327	778.5
431.789	781
432.252	782.2
432.714	784.4
433.176	783.8
433.639	780.9
434.101	783.5
434.563	780.2
435.026	781.6
435.488	784.3
435.95	785
436.412	778.3
436.875	779.2
437.337	777
437.799	780.8
438.261	778.1
438.723	785
439.185	781.8
439.647	781.5
440.109	787
440.571	785.9
441.033	780
441.495	783.5
441.957	782.7
442.419	781.6
442.881	781.7
443.342	784.1
443.804	785.1
444.266	784.4
444.728	783.6
445.189	784.7
445.651	780.8
446.113	782.5
446.574	775.2
447.036	779.9
447.497	783.2
447.959	779.7
448.421	786.3
448.882	783.2
449.343	784.1
449.805	779.1
450.266	777.9
450.728	780.4
451.189	785
451.65	781.1
452.112	784
452.573	781.3
453.034	780.2
453.495	780.4
453.957	781
454.418	781
454.879	776.8
455.34	778.5
455.801	781.7
456.262	783.1
456.723	781.8
457.184	777.9
457.645	785
458.106	778.4
458.567	780.5
459.028	781.6
459.489	782.6
459.95	784.1
460.41	779.8
460.871	779.6
461.332	779.9
461.793	780
462.253	779.3
462.714	783.7
463.175	779.3
463.635	779.9
464.096	782.2
464.556	784.7
465.017	781.2
465.478	776.2
465.938	780.7
466.398	783.9
466.859	780.7
467.319	783.6
467.78	785.7
468.24	779.8
468.7	780.4
469.161	778.6
469.621	780.9
470.081	781.1
470.541	785.1
471.002	787.8
471.462	786.7
471.922	786.4
472.382	786.7
472.842	777.8
473.302	781
473.762	784.6
474.222	779.8
474.682	779.1
475.142	781.4
475.602	778.5
476.062	781.4
476.522	782.1
476.982	784.7
477.442	785.6
477.901	784
478.361	785.3
478.821	788
479.281	784.9
479.74	783.1
480.2	782.2
480.659	786.6
481.119	784.7
481.579	779.5
482.038	780.1
482.498	788
482.957	782.8
483.417	779.9
483.876	781.7
484.336	781.4
484.795	778.7
485.254	778.9
485.714	779
486.173	780.4
486.632	779.6
487.091	780.9
487.551	780.2
488.01	779.9
488.469	778.5
488.928	777.7
489.387	778.2
489.846	779.2
490.305	776.8
490.764	775
491.223	782.3
491.682	779.5
492.141	782.9
492.6	779.1
493.059	779.3
493.518	783.9
493.977	774.5
494.436	778.8
494.895	778.6
495.353	783.1
495.812	778
496.271	777.5
496.729	780.4
497.188	779.4
497.647	776.9
498.105	780.6
498.564	779
499.022	777.5
499.481	773
499.939	777.8
500.398	778.4
500.856	780.1
501.315	775.6
501.773	782.2
502.232	782.5
502.69	780.8
503.148	780
503.606	778.9
504.065	780.2
504.523	781.2
504.981	774.6
505.439	776.1
505.897	774.7
506.356	779.9
506.814	781.8
507.272	782.3
507.73	778.4
508.188	781.7
508.646	772.1
509.104	781
509.562	781.9
510.02	777.7
510.477	782.9
510.935	781.8
511.393	780.5
511.851	778.7
512.309	782.7
512.766	777.4
513.224	777.5
513.682	776
514.139	777.7
514.597	779.5
515.055	777.9
515.512	778.5
515.97	779.3
516.427	782
516.885	778.9
517.342	775.6
517.8	778
518.257	782.1
518.714	780.2
519.172	780.1
519.629	783.6
520.086	779.9
520.544	782.7
521.001	778
521.458	776.8
521.915	778
522.373	780
522.83	776.7
523.287	780.2
523.744	781.5
524.201	780.4
524.658	777.2
525.115	776.5
525.572	780.9
526.029	776.8
526.486	776.2
526.943	779
527.4	778.9
527.857	775
528.313	775.9
528.77	779.5
529.227	777.1
529.684	777.2
530.14	777.1
530.597	777.8
531.054	776.4
531.51	778.8
531.967	775.3
532.423	778.1
532.88	778.3
533.337	774
533.793	775.5
534.25	776.7
534.706	776.8
535.162	779.2
535.619	774
536.075	778.8
536.531	777.5
536.988	774.6
537.444	775
537.9	780.7
538.356	778.9
538.813	777.1
539.269	777.8
539.725	778.1
540.181	779.2
540.637	777
541.093	776.7
541.549	778.2
542.005	777.6
542.461	776.4
542.917	783.8
543.373	780.4
543.829	773.5
544.285	779.3
544.741	778.3
545.197	781.5
545.652	777.7
546.108	780.8
546.564	780.1
547.02	777
547.475	777.1
547.931	779.1
548.387	778.7
548.842	780.6
549.298	777.1
549.753	774.8
550.209	781.9
550.664	780.7
551.12	779.2
551.575	772.5
552.031	779.1
552.486	781.1
552.941	777.6
553.397	788.7
553.852	781
554.307	775
554.762	776.2
555.218	779.4
555.673	782.7
556.128	772.9
556.583	774.7
557.038	776.5
557.493	781.6
557.948	779
558.403	779.4
558.858	778
559.313	782
559.768	779.6
560.223	781.2
560.678	777
561.133	782
561.588	776.9
562.043	776.7
562.497	776.4
562.952	774.9
563.407	773.8
563.862	780.4
564.316	780.7
564.771	779.1
565.226	776.3
565.68	776.8
566.135	779.1
566.589	777.5
567.044	775.6
567.498	777.7
567.953	775.6
568.407	776
568.862	775.9
569.316	775.8
569.77	781
570.225	777.5
570.679	775.2
571.133	775.9
571.587	779.5
572.042	776.9
572.496	775.2
572.95	771.3
573.404	780.7
573.858	774.9
574.312	780.1
574.766	776.9
575.22	777.3
575.674	785.1
576.128	778.2
576.582	781.8
577.036	778.2
577.49	771.6
577.944	777.3
578.398	774.9
578.852	780.1
579.305	775.3
579.759	777.1
580.213	777.2
580.666	776.3
581.12	774.1
581.574	773.8
582.027	776.5
582.481	777.8
582.935	778.1
583.388	774.7
583.842	781.5
584.295	777.6
584.748	779.6
585.202	780.1
585.655	778.3
586.109	772.6
586.562	776.8
587.015	778.9
587.469	776.7
587.922	778.8
588.375	774.8
588.828	780.7
589.281	778.7
589.735	778.1
590.188	779.7
590.641	775.4
591.094	775.1
591.547	778.7
592	779.4
592.453	777.6
592.906	779.7
593.359	774.3
593.812	777.9
594.265	776.7
594.717	775.8
595.17	777
595.623	778.3
596.076	777
596.529	772.2
596.981	768.7
597.434	778.1
597.887	780.9
598.339	777
598.792	772.6
599.245	776.3
599.697	774.8
600.15	774.8
600.602	779.5
601.055	776
601.507	780.6
601.959	779.4
602.412	775.5
602.864	778.7
603.316	779.5
603.769	773.5
604.221	780.5
604.673	776.4
605.126	775.4
605.578	778.2
606.03	783.2
606.482	775.1
606.934	775
607.386	775.4
607.838	775.4
608.29	778
608.742	782.3
609.194	777.2
609.646	768.9
610.098	782.4
610.55	776.7
611.002	782.1
611.454	775.4
611.906	777.6
612.357	774.2
612.809	777.4
613.261	774.8
613.713	777.5
614.164	775.9
614.616	778.5
615.068	776.6
615.519	775
615.971	777.1
616.422	779.5
616.874	777.5
617.325	775.6
617.777	777.8
618.228	776.2
618.68	772.9
619.131	775.4
619.582	776.1
620.034	777.6
620.485	772.8
620.936	777.7
621.387	775.3
621.839	780.8
622.29	781.3
622.741	779.7
623.192	777
623.643	777.9
624.094	780.3
624.545	778.3
624.996	778.8
625.447	782.1
625.898	777.8
626.349	779.7
626.8	779.4
627.251	775.3
627.702	775.3
628.153	776.8
628.604	775.6
629.054	774.8
629.505	774.1
629.956	775.8
630.406	776.9
630.857	779.1
631.308	783.8
631.758	778.1
632.209	772.1
632.66	777.7
633.11	779.9
633.561	778.3
634.011	776.8
634.461	778.1
634.912	782
635.362	775.8
635.813	776.4
636.263	778.7
636.713	772.9
637.164	778.3
637.614	777.7
638.064	773.5
638.514	777.8
638.964	777
639.415	773
639.865	776.5
640.315	775.5
640.765	772.6
641.215	773.4
641.665	782.6
642.115	782.2
642.565	781.8
643.015	779
643.465	774.8
643.915	775.7
644.364	771.8
644.814	769.7
645.264	777.6
645.714	770.3
646.163	773.8
646.613	771.3
647.063	780.1
647.513	775.9
647.962	773.1
648.412	776.9
648.861	781.6
649.311	774.4
649.76	777.2
650.21	777.1
650.659	782.8
651.109	778.4
651.558	779.9
652.008	775.3
652.457	779.6
652.906	774.4
653.356	778.3
653.805	775.5
654.254	779.7
654.703	780.4
655.152	776
655.602	772
656.051	778.6
656.5	777.9
656.949	777.6
657.398	779.9
657.847	773
658.296	779.2
658.745	778
659.194	776.5
659.643	781.1
660.092	774.2
660.541	782.2
660.989	782.1
661.438	777.4
661.887	773.6
662.336	778.3
662.784	776
663.233	781.6
663.682	777.4
664.13	777.3
664.579	773.7
665.028	776.6
665.476	779
665.925	775.6
666.373	777.8
666.822	780.3
667.27	772.6
667.719	774.2
668.167	776.4
668.615	781.3
669.064	773.8
669.512	775.8
669.96	783.4
670.408	782.2
670.857	771.6
671.305	774.9
671.753	775.8
672.201	772.6
672.649	772.5
673.097	778.7
673.545	778
673.993	780.1
674.441	772.8
674.889	778.4
675.337	776.4
675.785	777.7
676.233	773.8
676.681	779.6
677.129	776.7
677.577	773.3
678.025	774.9
678.472	774
678.92	775.6
679.368	772.4
679.815	777.3
680.263	776.5
680.711	776.1
681.158	777.6
681.606	779
682.053	774
682.501	779.2
682.948	779.7
683.396	773
683.843	777.9
684.291	774.8
684.738	773
685.185	777.3
685.633	779.1
686.08	772.3
686.527	772
686.974	779.2
687.422	779.4
687.869	777
688.316	779.2
688.763	781.9
689.21	780.9
689.657	778
690.104	772.8
690.551	777.9
690.998	779.7
691.445	769.4
691.892	777.9
692.339	782.2
692.786	775.8
693.233	772.2
693.68	780.8
694.127	778.2
694.573	780
695.02	778.4
695.467	772.3
695.913	777.3
696.36	781.7
696.807	777.4
697.253	776.9
697.7	776.8
698.146	776.1
698.593	776.1
699.039	779.8
699.486	779.6
699.932	778
700.379	776.3
700.825	777.8
701.272	777.7
701.718	778.3
702.164	782.2
702.61	776.8
703.057	778.7
703.503	773.9
703.949	772.9
704.395	779.3
704.841	780.7
705.287	782.1
705.734	777.5
706.18	777.4
706.626	778.4
707.072	778.4
707.518	777.3
707.964	777
708.409	777.7
708.855	779.1
709.301	775.5
709.747	779.4
710.193	776.5
710.639	775.6
711.084	775.1
711.53	779.2
711.976	782.4
712.421	775.6
712.867	774.6
713.313	772.9
713.758	781.7
714.204	777.3
714.649	776.2
715.095	782.1
715.54	783
715.986	775.1
716.431	780.1
716.877	778.7
717.322	774.6
717.767	775.2
718.213	773.9
718.658	778.9
719.103	783.1
719.548	777.9
719.994	777.4
720.439	774.6
720.884	777.6
721.329	777.3
721.774	777.2
722.219	779.3
722.664	773.5
723.109	776.6
723.554	779.9
723.999	779.8
724.444	780.7
724.889	777.7
725.334	774.2
725.779	778.1
726.223	774.6
726.668	777.8
727.113	780.4
727.558	773.6
728.002	778.4
728.447	774.1
728.892	778.8
729.336	775.4
729.781	771.7
730.225	773.8
730.67	776.3
731.114	777.1
731.559	779.7
732.003	782.3
732.448	781.2
732.892	777.8
733.337	778.1
733.781	777.5
734.225	783
734.67	780.7
735.114	776.3
735.558	776.5
736.002	782
736.446	776.8
736.891	777.4
737.335	779.2
737.779	782.6
738.223	776.4
738.667	778.1
739.111	780.7
739.555	777
739.999	777.4
740.443	777.8
740.887	776.8
741.33	774.9
741.774	780.2
742.218	776.3
742.662	774.9
743.106	777.4
743.549	779.3
743.993	778.7
744.437	775.9
744.88	780.6
745.324	772.2
745.768	782.3
746.211	779.4
746.655	780.8
747.098	782.9
747.542	776.8
747.985	775.7
748.429	777.8
748.872	777
749.315	775.2
749.759	782.1
750.202	781.8
750.645	778.9
751.089	775.8
751.532	780.1
751.975	780.6
752.418	778
752.861	779.1
753.305	778.1
753.748	775.6
754.191	775.6
754.634	783
755.077	784.3
755.52	779.7
755.963	777.7
756.406	779.4
756.849	778.6
757.291	780.5
757.734	777.9
758.177	777.2
758.62	776.9
759.063	782.3
759.505	783.2
759.948	787.4
760.391	781.9
760.833	778.1
761.276	782.4
761.719	779.3
762.161	778.4
762.604	778
763.046	775.3
763.489	780.3
763.931	779.6
764.374	776.1
764.816	776.4
765.258	779.3
765.701	777.2
766.143	778.5
766.585	776.4
767.028	780.4
767.47	771.9
767.912	776.1
768.354	777.2
768.796	782.2
769.238	779.5
769.681	777.7
770.123	776.9
770.565	781.9
771.007	778.6
771.449	777.6
771.891	779.9
772.333	784.7
772.774	775.9
773.216	777.8
773.658	775.9
774.1	782.9
774.542	774.1
774.984	777.7
775.425	779.7
775.867	778.2
776.309	779.6
776.75	778.2
777.192	779.4
777.634	779.4
778.075	779.6
778.517	779.1
778.958	778.5
779.4	783
779.841	779.7
780.283	774.5
780.724	782
781.165	776.8
781.607	778
782.048	782.6
782.489	780.2
782.931	774.4
783.372	781.4
783.813	780.6
784.254	782.6
784.695	777.2
785.136	779.8
785.578	780.7
786.019	777
786.46	780.1
786.901	774.2
787.342	779.1
787.783	781.4
788.224	773.7
788.664	779
789.105	780.6
789.546	783
789.987	782.4
790.428	777
790.869	775.6
791.309	777.3
791.75	776.5
792.191	781.3
792.631	780.6
793.072	780.5
793.513	779.8
793.953	782.8
794.394	782.8
794.834	781.5
795.275	777.6
795.715	778.3
796.156	779.6
796.596	779.6
797.036	780.7
797.477	779.4
797.917	785.1
798.357	778.9
798.798	777.9
799.238	776.9
799.678	776.2
800.118	780.1
800.558	776.7
800.998	776.3
